#EXPORTTYPE:DATA ALL
#FILE:DQ2V(10K).ngb-ds3
#FORMAT:NETZSCH5
#FTYPE:ANSI
#IDENTITY:1
#DECIMAL:POINT
#SEPARATOR:SEMICOLON
#MTYPE:DSC
#INSTRUMENT:NETZSCH STA 449F3
#PROJECT:调试
#DATE/TIME:23.08.2018 17:19
#CORR. FILE:基线Ar（1200,10K).ngb-bs3
#TEMPCAL:TCALZERO.TCX
#SENSITIVITY:SENSZERO.EXX
#LABORATORY:煤及煤系气重点实验室
#OPERATOR:wangchg
#REMARK:
#SAMPLE:DQ2V
#SAMPLE MASS /mg:10
#MATERIAL:煤样
#REFERENCE:空坩埚
#REFERENCE MASS /mg:0
#TYPE OF CRUCIBLE:DSC/TG pan Al2O3
#SAMPLE CRUCIBLE MASS /mg:0
#REFERENCE CRUCIBLE MASS /mg:0
#DSC RANGE /μV:5000
#TG RANGE /mg:35000
#TAU-R:---
#CORR. CODE:020
#EXO:-1
#RANGE:40°C/10.0(K/min)/1000°C
#SEGMENT:S1/1
#SEG. 1:40°C/10.0(K/min)/1000°C

##Temp./°C;Time/min;DSC/(uV/mg);Mass/%;Sensit./(uV/mW)
 37.46600; 0.00000;4.882814e-003;100.00000;1.00000
 37.47632; 0.04802;4.515756e-003; 99.99524;1.00000
 37.46603; 0.09604;4.121470e-003; 99.99105;1.00000
 37.47687; 0.14406;4.663322e-003; 99.98903;1.00000
 37.47339; 0.19208;4.224450e-003; 99.98900;1.00000
 37.47902; 0.24010;4.421214e-003; 99.98900;1.00000
 37.47672; 0.28811;4.692332e-003; 99.98794;1.00000
 37.48237; 0.33613;4.704948e-003; 99.98637;1.00000
 37.49985; 0.38415;4.860859e-003; 99.98463;1.00000
 37.49938; 0.43217;6.062070e-003; 99.98301;1.00000
 37.50327; 0.48019;5.878933e-003; 99.97999;1.00000
 37.51164; 0.52821;5.625878e-003; 99.98068;1.00000
 37.52237; 0.57623;6.502618e-003; 99.98595;1.00000
 37.54028; 0.62425;7.753182e-003; 99.98492;1.00000
 37.56567; 0.67227;7.554101e-003; 99.98782;1.00000
 37.59217; 0.72029;9.237908e-003; 99.98702;1.00000
 37.63221; 0.76830;9.223150e-003; 99.99287;1.00000
 37.64869; 0.81632;1.028167e-002; 99.99306;1.00000
 37.70664; 0.86434;1.199453e-002; 99.99952;1.00000
 37.75119; 0.91236;1.240727e-002;100.00165;1.00000
 37.79268; 0.96038;1.442081e-002;100.00203;1.00000
 37.84010; 1.00840;1.541404e-002;100.00331;1.00000
 37.90070; 1.05642;1.622273e-002;100.01042;1.00000
 37.99479; 1.10444;1.962767e-002;100.00423;1.00000
 38.05912; 1.15246;2.181466e-002;100.01724;1.00000
 38.13515; 1.20048;2.305603e-002;100.01300;1.00000
 38.21904; 1.24849;2.505763e-002;100.01281;1.00000
 38.30953; 1.29651;2.769259e-002;100.00452;1.00000
 38.40816; 1.34453;3.000594e-002;100.01241;1.00000
 38.51532; 1.39255;3.215146e-002;100.01784;1.00000
 38.63608; 1.44057;3.416336e-002;100.00529;1.00000
 38.75838; 1.48859;3.711700e-002;100.01167;1.00000
 38.89246; 1.53661;3.948575e-002;100.01108;1.00000
 39.03170; 1.58463;4.222060e-002;100.00580;1.00000
 39.16881; 1.63265;4.563759e-002;100.01577;1.00000
 39.32841; 1.68067;4.803640e-002; 99.99898;1.00000
 39.47231; 1.72868;5.113413e-002;100.00679;1.00000
 39.64379; 1.77670;5.411623e-002;100.00986;1.00000
 39.80384; 1.82472;5.694489e-002;100.01184;1.00000
 39.97977; 1.87274;5.983194e-002;100.02396;1.00000
 40.15870; 1.92076;6.309795e-002;100.01890;1.00000
 40.34923; 1.96878;6.554161e-002;100.01316;1.00000
 40.52897; 2.01680;6.965703e-002;100.01806;1.00000
 40.75034; 2.06482;7.169141e-002;100.00888;1.00000
 40.95402; 2.11284;7.336041e-002;100.02447;1.00000
 41.16596; 2.16086;7.821884e-002;100.01484;1.00000
 41.38697; 2.20887;8.056280e-002;100.01545;1.00000
 41.59744; 2.25689;8.351766e-002;100.02701;1.00000
 41.84529; 2.30491;8.713210e-002;100.02340;1.00000
 42.07780; 2.35293;8.997827e-002;100.03476;1.00000
 42.33216; 2.40095;9.355870e-002;100.02984;1.00000
 42.57268; 2.44897;9.636771e-002;100.01719;1.00000
 42.82224; 2.49699;9.913142e-002;100.02929;1.00000
 43.08077; 2.54501;      0.10280;100.01494;1.00000
 43.33024; 2.59303;      0.10597;100.02412;1.00000
 43.61786; 2.64105;      0.10937;100.02689;1.00000
 43.87364; 2.68906;      0.11151;100.03655;1.00000
 44.15982; 2.73708;      0.11384;100.03563;1.00000
 44.43134; 2.78510;      0.11718;100.03412;1.00000
 44.71849; 2.83312;      0.12004;100.03966;1.00000
 45.03101; 2.88114;      0.12225;100.02928;1.00000
 45.30841; 2.92916;      0.12535;100.03601;1.00000
 45.61432; 2.97718;      0.12758;100.03362;1.00000
 45.90280; 3.02520;      0.13043;100.03362;1.00000
 46.21652; 3.07322;      0.13308;100.03591;1.00000
 46.52729; 3.12124;      0.13549;100.03758;1.00000
 46.84003; 3.16925;      0.13836;100.04392;1.00000
 47.17993; 3.21727;      0.14020;100.03912;1.00000
 47.48916; 3.26529;      0.14304;100.04995;1.00000
 47.81297; 3.31331;      0.14573;100.04057;1.00000
 48.13504; 3.36133;      0.14763;100.03380;1.00000
 48.47457; 3.40935;      0.15053;100.03399;1.00000
 48.81716; 3.45737;      0.15302;100.02927;1.00000
 49.14482; 3.50539;      0.15493;100.02152;1.00000
 49.49408; 3.55341;      0.15677;100.03766;1.00000
 49.85007; 3.60143;      0.16002;100.03679;1.00000
 50.19070; 3.64944;      0.16222;100.03206;1.00000
 50.54702; 3.69746;      0.16440;100.03145;1.00000
 50.91075; 3.74548;      0.16624;100.03422;1.00000
 51.25991; 3.79350;      0.16807;100.03018;1.00000
 51.61239; 3.84152;      0.16968;100.01395;1.00000
 51.97569; 3.88954;      0.17164;100.02683;1.00000
 52.35564; 3.93756;      0.17390;100.03067;1.00000
 52.71909; 3.98558;      0.17537;100.01988;1.00000
 53.08026; 4.03360;      0.17767;100.02002;1.00000
 53.47351; 4.08162;      0.17963;100.02508;1.00000
 53.81634; 4.12963;      0.18143;100.02594;1.00000
 54.22297; 4.17765;      0.18303;100.02486;1.00000
 54.58917; 4.22567;      0.18454;100.02928;1.00000
 54.97167; 4.27369;      0.18687;100.03147;1.00000
 55.35622; 4.32171;      0.18783;100.03219;1.00000
 55.74543; 4.36973;      0.18996;100.03798;1.00000
 56.14323; 4.41775;      0.19168;100.03033;1.00000
 56.52035; 4.46577;      0.19329;100.03211;1.00000
 56.92719; 4.51379;      0.19511;100.03000;1.00000
 57.31956; 4.56181;      0.19640;100.03492;1.00000
 57.71432; 4.60982;      0.19797;100.03597;1.00000
 58.10800; 4.65784;      0.19940;100.03965;1.00000
 58.51028; 4.70586;      0.20085;100.04532;1.00000
 58.92123; 4.75388;      0.20322;100.04588;1.00000
 59.32551; 4.80190;      0.20469;100.04501;1.00000
 59.72938; 4.84992;      0.20530;100.04500;1.00000
 60.13444; 4.89794;      0.20686;100.04780;1.00000
 60.55217; 4.94596;      0.20829;100.04112;1.00000
 60.94771; 4.99398;      0.20991;100.03548;1.00000
 61.35767; 5.04200;      0.21180;100.03299;1.00000
 61.77513; 5.09002;      0.21194;100.02900;1.00000
 62.20272; 5.13803;      0.21322;100.02790;1.00000
 62.60725; 5.18605;      0.21475;100.02741;1.00000
 63.03006; 5.23407;      0.21519;100.02249;1.00000
 63.44756; 5.28209;      0.21722;100.01553;1.00000
 63.86690; 5.33011;      0.21813;100.00899;1.00000
 64.29395; 5.37813;      0.21906;100.00519;1.00000
 64.72009; 5.42615;      0.22121;100.00701;1.00000
 65.15414; 5.47417;      0.22174;100.00558;1.00000
 65.56967; 5.52219;      0.22274;100.00175;1.00000
 65.99163; 5.57021;      0.22302;100.00000;1.00000
 66.42776; 5.61822;      0.22486;100.00095;1.00000
 66.85048; 5.66624;      0.22698; 99.99733;1.00000
 67.28144; 5.71426;      0.22772; 99.99350;1.00000
 67.71728; 5.76228;      0.22761; 99.98458;1.00000
 68.15589; 5.81030;      0.22948; 99.98201;1.00000
 68.59729; 5.85832;      0.23009; 99.98482;1.00000
 69.02071; 5.90634;      0.23165; 99.99072;1.00000
 69.46398; 5.95436;      0.23259; 99.99192;1.00000
 69.89950; 6.00238;      0.23346; 99.99302;1.00000
 70.33606; 6.05040;      0.23427; 99.99407;1.00000
 70.76062; 6.09841;      0.23492; 99.99681;1.00000
 71.21975; 6.14643;      0.23582; 99.99862;1.00000
 71.64536; 6.19445;      0.23720; 99.99519;1.00000
 72.09357; 6.24247;      0.23875; 99.99080;1.00000
 72.52958; 6.29049;      0.24008; 99.98699;1.00000
 72.97941; 6.33851;      0.24034; 99.98695;1.00000
 73.40489; 6.38653;      0.24128; 99.99124;1.00000
 73.86354; 6.43455;      0.24144;100.00016;1.00000
 74.31066; 6.48257;      0.24246;100.00092;1.00000
 74.74369; 6.53059;      0.24333;100.00199;1.00000
 75.19414; 6.57860;      0.24518;100.00301;1.00000
 75.62596; 6.62662;      0.24541;100.00034;1.00000
 76.07949; 6.67464;      0.24653; 99.99566;1.00000
 76.52697; 6.72266;      0.24698; 99.99157;1.00000
 76.97627; 6.77068;      0.24798; 99.99003;1.00000
 77.42192; 6.81870;      0.24889; 99.97833;1.00000
 77.88532; 6.86672;      0.24980; 99.97183;1.00000
 78.33981; 6.91474;      0.25073; 99.97554;1.00000
 78.77880; 6.96276;      0.25137; 99.97606;1.00000
 79.24475; 7.01078;      0.25198; 99.97396;1.00000
 79.70127; 7.05879;      0.25317; 99.96819;1.00000
 80.13527; 7.10681;      0.25344; 99.96222;1.00000
 80.59882; 7.15483;      0.25371; 99.95954;1.00000
 81.06006; 7.20285;      0.25541; 99.95900;1.00000
 81.49793; 7.25087;      0.25607; 99.95894;1.00000
 81.95807; 7.29889;      0.25684; 99.95794;1.00000
 82.42418; 7.34691;      0.25772; 99.95985;1.00000
 82.87036; 7.39493;      0.25794; 99.95814;1.00000
 83.32994; 7.44295;      0.25883; 99.95675;1.00000
 83.78323; 7.49097;      0.25997; 99.95606;1.00000
 84.25206; 7.53898;      0.26125; 99.95707;1.00000
 84.70994; 7.58700;      0.26160; 99.95323;1.00000
 85.17400; 7.63502;      0.26144; 99.94765;1.00000
 85.64488; 7.68304;      0.26283; 99.94410;1.00000
 86.10147; 7.73106;      0.26330; 99.94202;1.00000
 86.56144; 7.77908;      0.26359; 99.94293;1.00000
 87.03451; 7.82710;      0.26472; 99.94223;1.00000
 87.49448; 7.87512;      0.26518; 99.93877;1.00000
 87.95759; 7.92314;      0.26668; 99.93689;1.00000
 88.43595; 7.97116;      0.26601; 99.93804;1.00000
 88.89755; 8.01917;      0.26691; 99.94103;1.00000
 89.37576; 8.06719;      0.26790; 99.94294;1.00000
 89.84952; 8.11521;      0.26824; 99.94255;1.00000
 90.30993; 8.16323;      0.26909; 99.93770;1.00000
 90.78356; 8.21125;      0.26977; 99.93395;1.00000
 91.26350; 8.25927;      0.27035; 99.93307;1.00000
 91.75156; 8.30729;      0.27164; 99.93211;1.00000
 92.21456; 8.35531;      0.27159; 99.92988;1.00000
 92.68687; 8.40333;      0.27209; 99.92690;1.00000
 93.15720; 8.45135;      0.27325; 99.92706;1.00000
 93.62630; 8.49936;      0.27321; 99.92509;1.00000
 94.10884; 8.54738;      0.27369; 99.91584;1.00000
 94.58607; 8.59540;      0.27442; 99.90740;1.00000
 95.05750; 8.64342;      0.27408; 99.90808;1.00000
 95.53744; 8.69144;      0.27593; 99.91007;1.00000
 96.01433; 8.73946;      0.27644; 99.91305;1.00000
 96.50415; 8.78748;      0.27559; 99.91006;1.00000
 96.97809; 8.83550;      0.27735; 99.90886;1.00000
 97.45290; 8.88352;      0.27740; 99.90797;1.00000
 97.93451; 8.93154;      0.27835; 99.90171;1.00000
 98.41859; 8.97955;      0.27842; 99.89803;1.00000
 98.90303; 9.02757;      0.27887; 99.89621;1.00000
 99.38058; 9.07559;      0.27896; 99.89304;1.00000
 99.85764; 9.12361;      0.27978; 99.89208;1.00000
100.34161; 9.17163;      0.28070; 99.88896;1.00000
100.81047; 9.21965;      0.28046; 99.88704;1.00000
101.30169; 9.26767;      0.28061; 99.88305;1.00000
101.78937; 9.31569;      0.28144; 99.88807;1.00000
102.26238; 9.36371;      0.28103; 99.88752;1.00000
102.74568; 9.41173;      0.28189; 99.87888;1.00000
103.23665; 9.45974;      0.28230; 99.87204;1.00000
103.73191; 9.50776;      0.28331; 99.86614;1.00000
104.21493; 9.55578;      0.28275; 99.86329;1.00000
104.69688; 9.60380;      0.28298; 99.85965;1.00000
105.18679; 9.65182;      0.28446; 99.85589;1.00000
105.66948; 9.69984;      0.28371; 99.85303;1.00000
106.15680; 9.74786;      0.28351; 99.84822;1.00000
106.64035; 9.79588;      0.28418; 99.84513;1.00000
107.11994; 9.84390;      0.28469; 99.84400;1.00000
107.60947; 9.89192;      0.28512; 99.84383;1.00000
108.09233; 9.93993;      0.28526; 99.84200;1.00000
108.58977; 9.98795;      0.28496; 99.84088;1.00000
109.06216;10.03597;      0.28533; 99.84365;1.00000
109.55377;10.08399;      0.28620; 99.84503;1.00000
110.03739;10.13201;      0.28636; 99.84489;1.00000
110.53627;10.18003;      0.28656; 99.84700;1.00000
111.01280;10.22805;      0.28671; 99.84790;1.00000
111.49768;10.27607;      0.28631; 99.84235;1.00000
111.99306;10.32409;      0.28627; 99.83663;1.00000
112.46802;10.37211;      0.28734; 99.83063;1.00000
112.95833;10.42013;      0.28695; 99.82399;1.00000
113.42989;10.46814;      0.28731; 99.81710;1.00000
113.92384;10.51616;      0.28759; 99.81701;1.00000
114.41812;10.56418;      0.28782; 99.81600;1.00000
114.91441;10.61220;      0.28812; 99.81178;1.00000
115.40654;10.66022;      0.28785; 99.80598;1.00000
115.89283;10.70824;      0.28814; 99.80325;1.00000
116.37857;10.75626;      0.28701; 99.80258;1.00000
116.85952;10.80428;      0.28735; 99.80413;1.00000
117.35333;10.85230;      0.28821; 99.80501;1.00000
117.83221;10.90032;      0.28769; 99.80398;1.00000
118.32402;10.94833;      0.28926; 99.80133;1.00000
118.82107;10.99635;      0.28908; 99.79605;1.00000
119.31524;11.04437;      0.28876; 99.79057;1.00000
119.81082;11.09239;      0.28842; 99.78596;1.00000
120.28940;11.14041;      0.28969; 99.78300;1.00000
120.77348;11.18843;      0.28966; 99.78392;1.00000
121.26484;11.23645;      0.28823; 99.78516;1.00000
121.75595;11.28447;      0.28837; 99.78455;1.00000
122.25440;11.33249;      0.28945; 99.77952;1.00000
122.73613;11.38051;      0.28890; 99.77092;1.00000
123.22150;11.42852;      0.28882; 99.76425;1.00000
123.71994;11.47654;      0.28920; 99.75769;1.00000
124.21561;11.52456;      0.28913; 99.75355;1.00000
124.69982;11.57258;      0.28873; 99.74874;1.00000
125.18291;11.62060;      0.28903; 99.74498;1.00000
125.67058;11.66862;      0.28828; 99.74400;1.00000
126.18360;11.71664;      0.28964; 99.74332;1.00000
126.67158;11.76466;      0.28882; 99.74154;1.00000
127.16491;11.81268;      0.28931; 99.73870;1.00000
127.65251;11.86070;      0.28826; 99.73501;1.00000
128.14788;11.90871;      0.28920; 99.73501;1.00000
128.64097;11.95673;      0.28904; 99.73134;1.00000
129.14351;12.00475;      0.28972; 99.72743;1.00000
129.63705;12.05277;      0.28859; 99.72391;1.00000
130.12607;12.10079;      0.28912; 99.72196;1.00000
130.62655;12.14881;      0.28915; 99.71916;1.00000
131.11288;12.19683;      0.28898; 99.71729;1.00000
131.60823;12.24485;      0.28886; 99.71678;1.00000
132.09790;12.29287;      0.28824; 99.71619;1.00000
132.60476;12.34089;      0.28866; 99.71501;1.00000
133.10554;12.38890;      0.28946; 99.71207;1.00000
133.59739;12.43692;      0.28910; 99.71003;1.00000
134.10137;12.48494;      0.28864; 99.70739;1.00000
134.60229;12.53296;      0.28865; 99.70423;1.00000
135.09574;12.58098;      0.28852; 99.70203;1.00000
135.59097;12.62900;      0.28855; 99.69801;1.00000
136.08752;12.67702;      0.28800; 99.69379;1.00000
136.58467;12.72504;      0.28909; 99.67952;1.00000
137.09298;12.77306;      0.28894; 99.66764;1.00000
137.58677;12.82108;      0.28882; 99.66394;1.00000
138.07761;12.86909;      0.28954; 99.66400;1.00000
138.57854;12.91711;      0.28913; 99.66400;1.00000
139.08608;12.96513;      0.28905; 99.66346;1.00000
139.58471;13.01315;      0.28873; 99.66078;1.00000
140.07351;13.06117;      0.28845; 99.65687;1.00000
140.58926;13.10919;      0.28854; 99.65307;1.00000
141.09295;13.15721;      0.28877; 99.64929;1.00000
141.58853;13.20523;      0.28892; 99.64604;1.00000
142.09700;13.25325;      0.29000; 99.64403;1.00000
142.58845;13.30127;      0.28870; 99.64400;1.00000
143.09327;13.34928;      0.28912; 99.64400;1.00000
143.59209;13.39730;      0.28846; 99.64312;1.00000
144.10180;13.44532;      0.28898; 99.64046;1.00000
144.60330;13.49334;      0.28884; 99.63796;1.00000
145.10260;13.54136;      0.28871; 99.63591;1.00000
145.61679;13.58938;      0.28922; 99.63304;1.00000
146.10491;13.63740;      0.28915; 99.63120;1.00000
146.61480;13.68542;      0.28926; 99.62636;1.00000
147.11177;13.73344;      0.28921; 99.62158;1.00000
147.62109;13.78146;      0.28864; 99.61891;1.00000
148.11956;13.82947;      0.28862; 99.60011;1.00000
148.62989;13.87749;      0.28936; 99.59220;1.00000
149.14024;13.92551;      0.28990; 99.58845;1.00000
149.63329;13.97353;      0.28910; 99.58480;1.00000
150.14339;14.02155;      0.28935; 99.58192;1.00000
150.64505;14.06957;      0.28940; 99.57902;1.00000
151.14306;14.11759;      0.28890; 99.57613;1.00000
151.64441;14.16561;      0.28956; 99.57300;1.00000
152.15323;14.21363;      0.29003; 99.56995;1.00000
152.65620;14.26165;      0.28945; 99.56598;1.00000
153.16065;14.30966;      0.28984; 99.56301;1.00000
153.66549;14.35768;      0.28974; 99.56000;1.00000
154.16655;14.40570;      0.28920; 99.55803;1.00000
154.65782;14.45372;      0.28988; 99.55703;1.00000
155.17891;14.50174;      0.28984; 99.55463;1.00000
155.67860;14.54976;      0.29022; 99.54206;1.00000
156.19175;14.59778;      0.29058; 99.53180;1.00000
156.68982;14.64580;      0.29093; 99.52291;1.00000
157.19669;14.69382;      0.29094; 99.51650;1.00000
157.69850;14.74184;      0.29067; 99.51298;1.00000
158.20649;14.78985;      0.29120; 99.51201;1.00000
158.71949;14.83787;      0.29078; 99.51019;1.00000
159.20982;14.88589;      0.29191; 99.50840;1.00000
159.71543;14.93391;      0.29174; 99.50574;1.00000
160.22665;14.98193;      0.29129; 99.50196;1.00000
160.72954;15.02995;      0.29190; 99.49601;1.00000
161.23230;15.07797;      0.29108; 99.48626;1.00000
161.74513;15.12599;      0.29169; 99.48087;1.00000
162.24208;15.17401;      0.29162; 99.47549;1.00000
162.74768;15.22203;      0.29276; 99.47281;1.00000
163.25446;15.27005;      0.29235; 99.47099;1.00000
163.75661;15.31806;      0.29246; 99.46713;1.00000
164.26227;15.36608;      0.29210; 99.45782;1.00000
164.76846;15.41410;      0.29298; 99.45029;1.00000
165.27335;15.46212;      0.29294; 99.44344;1.00000
165.76946;15.51014;      0.29313; 99.43798;1.00000
166.28463;15.55816;      0.29314; 99.43217;1.00000
166.78112;15.60618;      0.29296; 99.42627;1.00000
167.28056;15.65420;      0.29348; 99.42121;1.00000
167.78629;15.70222;      0.29395; 99.41685;1.00000
168.30150;15.75024;      0.29380; 99.41399;1.00000
168.79741;15.79825;      0.29438; 99.41096;1.00000
169.29531;15.84627;      0.29421; 99.40602;1.00000
169.81118;15.89429;      0.29376; 99.40057;1.00000
170.31838;15.94231;      0.29417; 99.39493;1.00000
170.81972;15.99033;      0.29444; 99.39097;1.00000
171.32460;16.03835;      0.29470; 99.38616;1.00000
171.83647;16.08637;      0.29506; 99.38148;1.00000
172.33639;16.13439;      0.29519; 99.37358;1.00000
172.84085;16.18241;      0.29529; 99.36750;1.00000
173.34955;16.23043;      0.29534; 99.36295;1.00000
173.84567;16.27844;      0.29527; 99.36012;1.00000
174.35625;16.32646;      0.29679; 99.35731;1.00000
174.86954;16.37448;      0.29669; 99.35398;1.00000
175.36497;16.42250;      0.29620; 99.34956;1.00000
175.87037;16.47052;      0.29648; 99.34899;1.00000
176.37342;16.51854;      0.29642; 99.34723;1.00000
176.87794;16.56656;      0.29615; 99.34506;1.00000
177.39094;16.61458;      0.29668; 99.34266;1.00000
177.89441;16.66260;      0.29663; 99.33675;1.00000
178.39220;16.71062;      0.29663; 99.33196;1.00000
178.90314;16.75863;      0.29721; 99.32906;1.00000
179.40983;16.80665;      0.29710; 99.32529;1.00000
179.91602;16.85467;      0.29695; 99.31861;1.00000
180.41920;16.90269;      0.29814; 99.30411;1.00000
180.91995;16.95071;      0.29804; 99.29282;1.00000
181.42889;16.99873;      0.29832; 99.28022;1.00000
181.93560;17.04675;      0.29868; 99.27232;1.00000
182.45151;17.09477;      0.29809; 99.26404;1.00000
182.95443;17.14279;      0.29832; 99.25445;1.00000
183.45503;17.19081;      0.29851; 99.24682;1.00000
183.96813;17.23882;      0.29864; 99.24105;1.00000
184.47579;17.28684;      0.29857; 99.23893;1.00000
184.97797;17.33486;      0.29947; 99.23863;1.00000
185.48455;17.38288;      0.29937; 99.23485;1.00000
185.98218;17.43090;      0.29948; 99.22894;1.00000
186.50017;17.47892;      0.29986; 99.22231;1.00000
187.01751;17.52694;      0.29910; 99.21358;1.00000
187.52663;17.57496;      0.30009; 99.20658;1.00000
188.03007;17.62298;      0.30026; 99.19758;1.00000
188.55019;17.67100;      0.30061; 99.19295;1.00000
189.04822;17.71901;      0.29991; 99.18999;1.00000
189.56298;17.76703;      0.30029; 99.18900;1.00000
190.06575;17.81505;      0.30123; 99.18847;1.00000
190.58378;17.86307;      0.30109; 99.18670;1.00000
191.09468;17.91109;      0.30134; 99.18396;1.00000
191.60524;17.95911;      0.30167; 99.18202;1.00000
192.09130;18.00713;      0.30119; 99.17838;1.00000
192.61736;18.05515;      0.30172; 99.17549;1.00000
193.13472;18.10317;      0.30169; 99.17175;1.00000
193.63946;18.15119;      0.30110; 99.16597;1.00000
194.15520;18.19920;      0.30260; 99.16214;1.00000
194.67605;18.24722;      0.30289; 99.15837;1.00000
195.18642;18.29524;      0.30281; 99.15494;1.00000
195.69793;18.34326;      0.30317; 99.15080;1.00000
196.20520;18.39128;      0.30202; 99.14061;1.00000
196.71562;18.43930;      0.30352; 99.13013;1.00000
197.24370;18.48732;      0.30277; 99.12040;1.00000
197.74772;18.53534;      0.30372; 99.10688;1.00000
198.25826;18.58336;      0.30307; 99.10059;1.00000
198.77023;18.63138;      0.30346; 99.09790;1.00000
199.27619;18.67939;      0.30436; 99.09503;1.00000
199.80043;18.72741;      0.30404; 99.09126;1.00000
200.30944;18.77543;      0.30439; 99.08605;1.00000
200.82491;18.82345;      0.30450; 99.08000;1.00000
201.33953;18.87147;      0.30466; 99.07587;1.00000
201.86130;18.91949;      0.30508; 99.07301;1.00000
202.35682;18.96751;      0.30525; 99.06750;1.00000
202.87946;19.01553;      0.30585; 99.05992;1.00000
203.39165;19.06355;      0.30589; 99.05324;1.00000
203.90712;19.11157;      0.30590; 99.04692;1.00000
204.41464;19.15958;      0.30633; 99.04104;1.00000
204.94736;19.20760;      0.30682; 99.03608;1.00000
205.44974;19.25562;      0.30632; 99.03104;1.00000
205.96620;19.30364;      0.30725; 99.02229;1.00000
206.47191;19.35166;      0.30682; 99.01555;1.00000
207.00677;19.39968;      0.30721; 99.00508;1.00000
207.51352;19.44770;      0.30695; 98.99474;1.00000
208.02402;19.49572;      0.30824; 98.98192;1.00000
208.54091;19.54374;      0.30797; 98.97242;1.00000
209.05823;19.59176;      0.30892; 98.96560;1.00000
209.57450;19.63977;      0.30868; 98.95704;1.00000
210.09111;19.68779;      0.30844; 98.95036;1.00000
210.60597;19.73581;      0.30880; 98.94531;1.00000
211.11556;19.78383;      0.30857; 98.94399;1.00000
211.64659;19.83185;      0.30896; 98.94403;1.00000
212.15360;19.87987;      0.30984; 98.94102;1.00000
212.67429;19.92789;      0.31066; 98.93714;1.00000
213.19159;19.97591;      0.31044; 98.93168;1.00000
213.70477;20.02393;      0.30968; 98.92375;1.00000
214.21747;20.07195;      0.31066; 98.91772;1.00000
214.73160;20.11996;      0.31044; 98.91300;1.00000
215.25498;20.16798;      0.31095; 98.90644;1.00000
215.76173;20.21600;      0.31139; 98.89831;1.00000
216.28135;20.26402;      0.31112; 98.89464;1.00000
216.79125;20.31204;      0.31124; 98.89289;1.00000
217.31466;20.36006;      0.31189; 98.88699;1.00000
217.82300;20.40808;      0.31140; 98.87922;1.00000
218.33914;20.45610;      0.31108; 98.87038;1.00000
218.84736;20.50412;      0.31214; 98.85966;1.00000
219.37633;20.55214;      0.31207; 98.84974;1.00000
219.88778;20.60016;      0.31242; 98.84196;1.00000
220.39866;20.64817;      0.31233; 98.83451;1.00000
220.91049;20.69619;      0.31252; 98.82588;1.00000
221.42984;20.74421;      0.31210; 98.81830;1.00000
221.93052;20.79223;      0.31242; 98.80949;1.00000
222.45246;20.84025;      0.31252; 98.79994;1.00000
222.96762;20.88827;      0.31254; 98.78834;1.00000
223.48080;20.93629;      0.31171; 98.77443;1.00000
223.98707;20.98431;      0.31224; 98.76404;1.00000
224.51592;21.03233;      0.31310; 98.75988;1.00000
225.01884;21.08035;      0.31341; 98.75901;1.00000
225.53629;21.12836;      0.31244; 98.75615;1.00000
226.04172;21.17638;      0.31267; 98.75170;1.00000
226.55048;21.22440;      0.31249; 98.74074;1.00000
227.07496;21.27242;      0.31271; 98.72593;1.00000
227.57651;21.32044;      0.31296; 98.71190;1.00000
228.09867;21.36846;      0.31257; 98.70230;1.00000
228.60884;21.41648;      0.31249; 98.69468;1.00000
229.12430;21.46450;      0.31256; 98.68876;1.00000
229.62681;21.51252;      0.31270; 98.67960;1.00000
230.13397;21.56054;      0.31335; 98.67088;1.00000
230.65309;21.60855;      0.31250; 98.66232;1.00000
231.15329;21.65657;      0.31271; 98.65424;1.00000
231.67865;21.70459;      0.31241; 98.64813;1.00000
232.18012;21.75261;      0.31223; 98.63747;1.00000
232.69229;21.80063;      0.31260; 98.62891;1.00000
233.20177;21.84865;      0.31264; 98.62025;1.00000
233.70399;21.89667;      0.31282; 98.61443;1.00000
234.22665;21.94469;      0.31277; 98.60649;1.00000
234.74093;21.99271;      0.31311; 98.60046;1.00000
235.24357;22.04073;      0.31245; 98.59597;1.00000
235.75417;22.08874;      0.31172; 98.59016;1.00000
236.27080;22.13676;      0.31229; 98.58442;1.00000
236.78015;22.18478;      0.31234; 98.57940;1.00000
237.28942;22.23280;      0.31167; 98.57577;1.00000
237.79250;22.28082;      0.31174; 98.56684;1.00000
238.31280;22.32884;      0.31198; 98.55799;1.00000
238.81070;22.37686;      0.31156; 98.55328;1.00000
239.32907;22.42488;      0.31124; 98.54820;1.00000
239.83913;22.47290;      0.31151; 98.53826;1.00000
240.35182;22.52092;      0.31097; 98.52178;1.00000
240.86335;22.56893;      0.31060; 98.51413;1.00000
241.37904;22.61695;      0.31149; 98.50637;1.00000
241.88032;22.66497;      0.31080; 98.49600;1.00000
242.39406;22.71299;      0.31128; 98.48557;1.00000
242.90320;22.76101;      0.31079; 98.47672;1.00000
243.40597;22.80903;      0.31137; 98.46619;1.00000
243.92558;22.85705;      0.30997; 98.45724;1.00000
244.42772;22.90507;      0.31060; 98.45390;1.00000
244.93200;22.95309;      0.31003; 98.45371;1.00000
245.44385;23.00111;      0.31058; 98.44987;1.00000
245.94554;23.04912;      0.31048; 98.44609;1.00000
246.46518;23.09714;      0.30917; 98.44128;1.00000
246.97420;23.14516;      0.30994; 98.43539;1.00000
247.47753;23.19318;      0.30912; 98.43039;1.00000
247.98752;23.24120;      0.30986; 98.42488;1.00000
248.49007;23.28922;      0.30946; 98.42007;1.00000
249.01359;23.33724;      0.30951; 98.41351;1.00000
249.51569;23.38526;      0.30877; 98.40738;1.00000
250.03580;23.43328;      0.30872; 98.40237;1.00000
250.53505;23.48130;      0.30822; 98.39686;1.00000
251.03043;23.52931;      0.30843; 98.39107;1.00000
251.55348;23.57733;      0.30830; 98.38561;1.00000
252.05831;23.62535;      0.30860; 98.37795;1.00000
252.56252;23.67337;      0.30822; 98.37266;1.00000
253.06786;23.72139;      0.30782; 98.36885;1.00000
253.58447;23.76941;      0.30846; 98.36506;1.00000
254.09326;23.81743;      0.30814; 98.36103;1.00000
254.60091;23.86545;      0.30827; 98.35799;1.00000
255.09766;23.91347;      0.30741; 98.35478;1.00000
255.61191;23.96149;      0.30774; 98.35101;1.00000
256.12598;24.00950;      0.30845; 98.34803;1.00000
256.62812;24.05752;      0.30731; 98.34721;1.00000
257.12806;24.10554;      0.30714; 98.34697;1.00000
257.62842;24.15356;      0.30779; 98.34495;1.00000
258.13332;24.20158;      0.30731; 98.33136;1.00000
258.65095;24.24960;      0.30648; 98.31710;1.00000
259.15490;24.29762;      0.30691; 98.30757;1.00000
259.65977;24.34564;      0.30738; 98.29849;1.00000
260.16970;24.39366;      0.30693; 98.28864;1.00000
260.66758;24.44168;      0.30737; 98.28192;1.00000
261.18457;24.48969;      0.30700; 98.27900;1.00000
261.67727;24.53771;      0.30658; 98.27811;1.00000
262.19176;24.58573;      0.30618; 98.27552;1.00000
262.69242;24.63375;      0.30625; 98.26839;1.00000
263.19844;24.68177;      0.30637; 98.26177;1.00000
263.71184;24.72979;      0.30519; 98.25505;1.00000
264.21313;24.77781;      0.30598; 98.24739;1.00000
264.72569;24.82583;      0.30529; 98.24032;1.00000
265.22753;24.87385;      0.30496; 98.23550;1.00000
265.72552;24.92187;      0.30565; 98.23065;1.00000
266.24277;24.96988;      0.30540; 98.22602;1.00000
266.74393;25.01790;      0.30470; 98.21356;1.00000
267.24513;25.06592;      0.30532; 98.20631;1.00000
267.74919;25.11394;      0.30486; 98.20388;1.00000
268.25744;25.16196;      0.30464; 98.20404;1.00000
268.76482;25.20998;      0.30365; 98.20300;1.00000
269.27376;25.25800;      0.30471; 98.20105;1.00000
269.77835;25.30602;      0.30383; 98.19643;1.00000
270.28446;25.35404;      0.30316; 98.19095;1.00000
270.78742;25.40206;      0.30401; 98.18032;1.00000
271.28382;25.45008;      0.30327; 98.16698;1.00000
271.79099;25.49809;      0.30306; 98.15810;1.00000
272.29630;25.54611;      0.30336; 98.15610;1.00000
272.79294;25.59413;      0.30308; 98.15460;1.00000
273.29882;25.64215;      0.30270; 98.15291;1.00000
273.81065;25.69017;      0.30265; 98.15200;1.00000
274.30522;25.73819;      0.30274; 98.14615;1.00000
274.81345;25.78621;      0.30306; 98.14135;1.00000
275.31577;25.83423;      0.30186; 98.13658;1.00000
275.81456;25.88225;      0.30189; 98.13178;1.00000
276.33849;25.93027;      0.30151; 98.12696;1.00000
276.82103;25.97828;      0.30134; 98.11819;1.00000
277.32043;26.02630;      0.30028; 98.11248;1.00000
277.82809;26.07432;      0.30058; 98.10666;1.00000
278.33546;26.12234;      0.29969; 98.10083;1.00000
278.83241;26.17036;      0.29950; 98.09495;1.00000
279.33612;26.21838;      0.29911; 98.08920;1.00000
279.83166;26.26640;      0.29844; 98.08603;1.00000
280.34260;26.31442;      0.29801; 98.08166;1.00000
280.84554;26.36244;      0.29737; 98.07634;1.00000
281.34793;26.41046;      0.29576; 98.06495;1.00000
281.84712;26.45847;      0.29555; 98.05545;1.00000
282.35584;26.50649;      0.29401; 98.04559;1.00000
282.85690;26.55451;      0.29283; 98.03898;1.00000
283.36652;26.60253;      0.29279; 98.03381;1.00000
283.86888;26.65055;      0.29219; 98.02791;1.00000
284.35844;26.69857;      0.29058; 98.02316;1.00000
284.86329;26.74659;      0.29025; 98.02000;1.00000
285.36600;26.79461;      0.29014; 98.01463;1.00000
285.87232;26.84263;      0.28943; 98.00874;1.00000
286.37178;26.89065;      0.28902; 98.00492;1.00000
286.86852;26.93866;      0.28890; 98.00116;1.00000
287.37256;26.98668;      0.28906; 97.99622;1.00000
287.87839;27.03470;      0.28959; 97.99389;1.00000
288.37002;27.08272;      0.29009; 97.99400;1.00000
288.87657;27.13074;      0.29069; 97.99301;1.00000
289.38505;27.17876;      0.28994; 97.99305;1.00000
289.88569;27.22678;      0.29174; 97.99027;1.00000
290.39260;27.27480;      0.29189; 97.98812;1.00000
290.88356;27.32282;      0.29316; 97.98491;1.00000
291.38432;27.37084;      0.29378; 97.98087;1.00000
291.89895;27.41885;      0.29399; 97.97711;1.00000
292.40277;27.46687;      0.29575; 97.97324;1.00000
292.89638;27.51489;      0.29656; 97.96935;1.00000
293.40624;27.56291;      0.29657; 97.96392;1.00000
293.89759;27.61093;      0.29783; 97.95888;1.00000
294.40429;27.65895;      0.29900; 97.95515;1.00000
294.90246;27.70697;      0.29982; 97.95202;1.00000
295.39879;27.75499;      0.30049; 97.95000;1.00000
295.90117;27.80301;      0.30170; 97.94774;1.00000
296.40356;27.85103;      0.30277; 97.94492;1.00000
296.90825;27.89904;      0.30358; 97.94205;1.00000
297.40785;27.94706;      0.30397; 97.93629;1.00000
297.90423;27.99508;      0.30397; 97.93103;1.00000
298.41423;28.04310;      0.30447; 97.92243;1.00000
298.89857;28.09112;      0.30473; 97.91588;1.00000
299.40785;28.13914;      0.30438; 97.91213;1.00000
299.91552;28.18716;      0.30487; 97.90639;1.00000
300.41636;28.23518;      0.30473; 97.90045;1.00000
300.91144;28.28320;      0.30479; 97.89353;1.00000
301.42201;28.33122;      0.30506; 97.88687;1.00000
301.91286;28.37923;      0.30474; 97.88102;1.00000
302.40876;28.42725;      0.30488; 97.87796;1.00000
302.91548;28.47527;      0.30506; 97.87747;1.00000
303.42039;28.52329;      0.30439; 97.87670;1.00000
303.91652;28.57131;      0.30425; 97.87380;1.00000
304.41898;28.61933;      0.30439; 97.86702;1.00000
304.91601;28.66735;      0.30488; 97.86216;1.00000
305.41948;28.71537;      0.30407; 97.85956;1.00000
305.91317;28.76339;      0.30401; 97.85468;1.00000
306.42138;28.81141;      0.30368; 97.84986;1.00000
306.92369;28.85942;      0.30369; 97.83416;1.00000
307.41916;28.90744;      0.30389; 97.82162;1.00000
307.92158;28.95546;      0.30334; 97.81038;1.00000
308.42354;29.00348;      0.30304; 97.80325;1.00000
308.91178;29.05150;      0.30298; 97.79896;1.00000
309.42021;29.09952;      0.30308; 97.79606;1.00000
309.92491;29.14754;      0.30336; 97.79321;1.00000
310.42517;29.19556;      0.30362; 97.79056;1.00000
310.92488;29.24358;      0.30374; 97.78657;1.00000
311.42854;29.29160;      0.30374; 97.78392;1.00000
311.92172;29.33961;      0.30251; 97.78006;1.00000
312.41895;29.38763;      0.30368; 97.77335;1.00000
312.92518;29.43565;      0.30364; 97.76801;1.00000
313.43094;29.48367;      0.30300; 97.76363;1.00000
313.91986;29.53169;      0.30290; 97.75991;1.00000
314.42805;29.57971;      0.30404; 97.75501;1.00000
314.93027;29.62773;      0.30284; 97.75395;1.00000
315.42943;29.67575;      0.30372; 97.75401;1.00000
315.93799;29.72377;      0.30353; 97.75265;1.00000
316.42097;29.77179;      0.30396; 97.74994;1.00000
316.92093;29.81980;      0.30495; 97.74701;1.00000
317.43332;29.86782;      0.30514; 97.74415;1.00000
317.92424;29.91584;      0.30556; 97.74001;1.00000
318.42486;29.96386;      0.30548; 97.73663;1.00000
318.92976;30.01188;      0.30576; 97.73379;1.00000
319.41898;30.05990;      0.30700; 97.72801;1.00000
319.92726;30.10792;      0.30685; 97.72423;1.00000
320.43293;30.15594;      0.30779; 97.72030;1.00000
320.93277;30.20396;      0.30734; 97.71794;1.00000
321.43328;30.25198;      0.30798; 97.71474;1.00000
321.92994;30.29999;      0.30823; 97.71200;1.00000
322.42519;30.34801;      0.30896; 97.70916;1.00000
322.92265;30.39603;      0.30887; 97.70839;1.00000
323.43736;30.44405;      0.30924; 97.70661;1.00000
323.94149;30.49207;      0.30945; 97.70395;1.00000
324.42292;30.54009;      0.31052; 97.70200;1.00000
324.93414;30.58811;      0.31101; 97.70010;1.00000
325.43870;30.63613;      0.31095; 97.69901;1.00000
325.93943;30.68415;      0.31160; 97.69801;1.00000
326.43860;30.73217;      0.31145; 97.69685;1.00000
326.92390;30.78019;      0.31174; 97.69097;1.00000
327.43149;30.82820;      0.31204; 97.68518;1.00000
327.92637;30.87622;      0.31190; 97.68101;1.00000
328.42230;30.92424;      0.31169; 97.67789;1.00000
328.93618;30.97226;      0.31161; 97.67803;1.00000
329.43467;31.02028;      0.31279; 97.67499;1.00000
329.93582;31.06830;      0.31065; 97.67305;1.00000
330.42656;31.11632;      0.31205; 97.66936;1.00000
330.92663;31.16434;      0.31116; 97.66687;1.00000
331.43146;31.21236;      0.31208; 97.66480;1.00000
331.91666;31.26038;      0.31079; 97.66197;1.00000
332.42184;31.30839;      0.31147; 97.65908;1.00000
332.92197;31.35641;      0.31154; 97.65623;1.00000
333.41552;31.40443;      0.31054; 97.65136;1.00000
333.91491;31.45245;      0.31084; 97.64883;1.00000
334.42152;31.50047;      0.31014; 97.64090;1.00000
334.91345;31.54849;      0.31051; 97.63615;1.00000
335.41551;31.59651;      0.31066; 97.63222;1.00000
335.91989;31.64453;      0.30976; 97.63052;1.00000
336.41235;31.69255;      0.30993; 97.62745;1.00000
336.90974;31.74057;      0.30945; 97.62196;1.00000
337.41262;31.78858;      0.30958; 97.61621;1.00000
337.91079;31.83660;      0.31010; 97.61043;1.00000
338.39855;31.88462;      0.30830; 97.60227;1.00000
338.89491;31.93264;      0.30961; 97.59239;1.00000
339.39500;31.98066;      0.30946; 97.58595;1.00000
339.89953;32.02868;      0.30972; 97.58210;1.00000
340.40738;32.07670;      0.30984; 97.58211;1.00000
340.90353;32.12472;      0.30992; 97.58110;1.00000
341.38750;32.17274;      0.30978; 97.57803;1.00000
341.88824;32.22076;      0.30930; 97.57397;1.00000
342.38934;32.26877;      0.30909; 97.56527;1.00000
342.88168;32.31679;      0.30967; 97.55433;1.00000
343.37003;32.36481;      0.30921; 97.54651;1.00000
343.87664;32.41283;      0.30909; 97.53631;1.00000
344.37465;32.46085;      0.30923; 97.53295;1.00000
344.86843;32.50887;      0.30835; 97.53213;1.00000
345.36376;32.55689;      0.30940; 97.52819;1.00000
345.85624;32.60491;      0.31005; 97.52343;1.00000
346.35734;32.65293;      0.30891; 97.51971;1.00000
346.84192;32.70095;      0.30843; 97.51490;1.00000
347.33417;32.74896;      0.30911; 97.51112;1.00000
347.83302;32.79698;      0.31004; 97.50737;1.00000
348.32264;32.84500;      0.30933; 97.50253;1.00000
348.82051;32.89302;      0.30918; 97.49875;1.00000
349.32084;32.94104;      0.31036; 97.49190;1.00000
349.81763;32.98906;      0.30997; 97.48711;1.00000
350.30956;33.03708;      0.31012; 97.48439;1.00000
350.79861;33.08510;      0.31080; 97.48048;1.00000
351.29699;33.13312;      0.31121; 97.47063;1.00000
351.78803;33.18114;      0.31072; 97.46292;1.00000
352.28669;33.22915;      0.31064; 97.45818;1.00000
352.79529;33.27717;      0.31084; 97.45318;1.00000
353.28281;33.32519;      0.31066; 97.44964;1.00000
353.77115;33.37321;      0.31168; 97.44155;1.00000
354.27664;33.42123;      0.31140; 97.43498;1.00000
354.76910;33.46925;      0.31227; 97.43008;1.00000
355.25501;33.51727;      0.31218; 97.42451;1.00000
355.76366;33.56529;      0.31233; 97.41722;1.00000
356.24452;33.61331;      0.31176; 97.41080;1.00000
356.73770;33.66133;      0.31341; 97.40376;1.00000
357.23109;33.70934;      0.31357; 97.39515;1.00000
357.73542;33.75736;      0.31342; 97.38650;1.00000
358.22545;33.80538;      0.31351; 97.38092;1.00000
358.72454;33.85340;      0.31450; 97.37784;1.00000
359.21321;33.90142;      0.31385; 97.37493;1.00000
359.71314;33.94944;      0.31519; 97.37006;1.00000
360.20461;33.99746;      0.31566; 97.36340;1.00000
360.69426;34.04548;      0.31552; 97.35398;1.00000
361.19329;34.09350;      0.31518; 97.33556;1.00000
361.68899;34.14152;      0.31663; 97.32585;1.00000
362.18245;34.18953;      0.31659; 97.32405;1.00000
362.66961;34.23755;      0.31663; 97.31844;1.00000
363.15854;34.28557;      0.31757; 97.31057;1.00000
363.66025;34.33359;      0.31748; 97.30300;1.00000
364.15931;34.38161;      0.31829; 97.29991;1.00000
364.64996;34.42963;      0.31829; 97.29900;1.00000
365.13141;34.47765;      0.31922; 97.29803;1.00000
365.63719;34.52567;      0.31892; 97.29546;1.00000
366.12128;34.57369;      0.31967; 97.29178;1.00000
366.61655;34.62171;      0.31989; 97.28689;1.00000
367.11010;34.66972;      0.32056; 97.28305;1.00000
367.60067;34.71774;      0.32056; 97.27922;1.00000
368.08950;34.76576;      0.32013; 97.27481;1.00000
368.59334;34.81378;      0.32060; 97.26929;1.00000
369.07315;34.86180;      0.32224; 97.26483;1.00000
369.57109;34.90982;      0.32134; 97.25605;1.00000
370.04722;34.95784;      0.32177; 97.24443;1.00000
370.55354;35.00586;      0.32227; 97.23469;1.00000
371.04120;35.05388;      0.32320; 97.22757;1.00000
371.53128;35.10190;      0.32351; 97.22193;1.00000
372.02319;35.14991;      0.32272; 97.22000;1.00000
372.51189;35.19793;      0.32374; 97.21711;1.00000
373.01100;35.24595;      0.32403; 97.21499;1.00000
373.49229;35.29397;      0.32328; 97.21060;1.00000
373.99735;35.34199;      0.32408; 97.20576;1.00000
374.47512;35.39001;      0.32448; 97.20200;1.00000
374.97959;35.43803;      0.32539; 97.19903;1.00000
375.46175;35.48605;      0.32568; 97.19540;1.00000
375.94561;35.53407;      0.32572; 97.19151;1.00000
376.44182;35.58209;      0.32528; 97.18779;1.00000
376.92902;35.63011;      0.32531; 97.18400;1.00000
377.41497;35.67812;      0.32618; 97.17940;1.00000
377.91173;35.72614;      0.32599; 97.17651;1.00000
378.39976;35.77416;      0.32707; 97.17163;1.00000
378.88968;35.82218;      0.32701; 97.16562;1.00000
379.38396;35.87020;      0.32660; 97.15998;1.00000
379.86881;35.91822;      0.32703; 97.15417;1.00000
380.36044;35.96624;      0.32723; 97.14787;1.00000
380.84902;36.01426;      0.32767; 97.13758;1.00000
381.34717;36.06228;      0.32855; 97.13075;1.00000
381.83312;36.11030;      0.32889; 97.11591;1.00000
382.32117;36.15831;      0.32929; 97.10248;1.00000
382.80744;36.20633;      0.33005; 97.09371;1.00000
383.30097;36.25435;      0.32920; 97.08607;1.00000
383.78963;36.30237;      0.32963; 97.06818;1.00000
384.28576;36.35039;      0.33022; 97.05597;1.00000
384.76869;36.39841;      0.33131; 97.05313;1.00000
385.25984;36.44643;      0.33059; 97.04747;1.00000
385.74979;36.49445;      0.33079; 97.03732;1.00000
386.24161;36.54247;      0.33079; 97.02966;1.00000
386.72462;36.59049;      0.33176; 97.02595;1.00000
387.22046;36.63850;      0.33251; 97.01828;1.00000
387.70733;36.68652;      0.33220; 97.01278;1.00000
388.20077;36.73454;      0.33281; 97.00503;1.00000
388.68421;36.78256;      0.33260; 96.99973;1.00000
389.18244;36.83058;      0.33295; 96.99290;1.00000
389.66896;36.87860;      0.33305; 96.98518;1.00000
390.16202;36.92662;      0.33365; 96.97945;1.00000
390.65199;36.97464;      0.33466; 96.97363;1.00000
391.15350;37.02266;      0.33429; 96.96771;1.00000
391.64642;37.07068;      0.33493; 96.95782;1.00000
392.12645;37.11869;      0.33528; 96.94726;1.00000
392.61947;37.16671;      0.33553; 96.93864;1.00000
393.11166;37.21473;      0.33576; 96.93016;1.00000
393.60140;37.26275;      0.33655; 96.92156;1.00000
394.09288;37.31077;      0.33694; 96.91492;1.00000
394.58300;37.35879;      0.33700; 96.90910;1.00000
395.06898;37.40681;      0.33800; 96.90334;1.00000
395.56194;37.45483;      0.33833; 96.89655;1.00000
396.04590;37.50285;      0.33870; 96.88867;1.00000
396.54128;37.55087;      0.33912; 96.87771;1.00000
397.03006;37.59888;      0.33983; 96.86522;1.00000
397.52108;37.64690;      0.34017; 96.85992;1.00000
398.01003;37.69492;      0.33996; 96.85899;1.00000
398.50642;37.74294;      0.34103; 96.85898;1.00000
398.99230;37.79096;      0.34105; 96.85689;1.00000
399.48828;37.83898;      0.34147; 96.85312;1.00000
399.96752;37.88700;      0.34199; 96.84829;1.00000
400.46364;37.93502;      0.34308; 96.84298;1.00000
400.95085;37.98304;      0.34277; 96.83573;1.00000
401.44828;38.03106;      0.34355; 96.82991;1.00000
401.94503;38.07907;      0.34372; 96.82508;1.00000
402.42448;38.12709;      0.34472; 96.81855;1.00000
402.90797;38.17511;      0.34527; 96.81114;1.00000
403.40439;38.22313;      0.34515; 96.79608;1.00000
403.89246;38.27115;      0.34515; 96.78263;1.00000
404.38470;38.31917;      0.34612; 96.76921;1.00000
404.87280;38.36719;      0.34654; 96.75686;1.00000
405.35589;38.41521;      0.34715; 96.74788;1.00000
405.84830;38.46323;      0.34735; 96.74365;1.00000
406.33901;38.51125;      0.34781; 96.73774;1.00000
406.82782;38.55926;      0.34778; 96.72911;1.00000
407.31545;38.60728;      0.34819; 96.72427;1.00000
407.80706;38.65530;      0.34900; 96.71958;1.00000
408.29724;38.70332;      0.34923; 96.71275;1.00000
408.78869;38.75134;      0.34991; 96.70471;1.00000
409.27201;38.79936;      0.35001; 96.69516;1.00000
409.75898;38.84738;      0.35075; 96.68561;1.00000
410.24768;38.89540;      0.35116; 96.67749;1.00000
410.73286;38.94342;      0.35129; 96.67028;1.00000
411.21892;38.99144;      0.35283; 96.65854;1.00000
411.70530;39.03945;      0.35331; 96.64219;1.00000
412.19827;39.08747;      0.35400; 96.63129;1.00000
412.68347;39.13549;      0.35375; 96.62911;1.00000
413.16993;39.18351;      0.35461; 96.62472;1.00000
413.66182;39.23153;      0.35533; 96.61781;1.00000
414.15816;39.27955;      0.35544; 96.61106;1.00000
414.64652;39.32757;      0.35571; 96.60436;1.00000
415.12697;39.37559;      0.35633; 96.59422;1.00000
415.61436;39.42361;      0.35671; 96.57874;1.00000
416.11537;39.47163;      0.35825; 96.56349;1.00000
416.59245;39.51964;      0.35774; 96.55305;1.00000
417.08698;39.56766;      0.35820; 96.54517;1.00000
417.56986;39.61568;      0.35961; 96.53940;1.00000
418.06311;39.66370;      0.35964; 96.53363;1.00000
418.54455;39.71172;      0.36081; 96.52774;1.00000
419.03447;39.75974;      0.36141; 96.51803;1.00000
419.52327;39.80776;      0.36147; 96.50968;1.00000
420.01347;39.85578;      0.36266; 96.49698;1.00000
420.50131;39.90380;      0.36303; 96.48505;1.00000
420.99021;39.95182;      0.36392; 96.47772;1.00000
421.47933;39.99983;      0.36445; 96.46805;1.00000
421.96821;40.04785;      0.36481; 96.44956;1.00000
422.45500;40.09587;      0.36583; 96.44054;1.00000
422.94434;40.14389;      0.36556; 96.43773;1.00000
423.42702;40.19191;      0.36635; 96.43181;1.00000
423.92532;40.23993;      0.36705; 96.42302;1.00000
424.41076;40.28795;      0.36779; 96.41059;1.00000
424.89867;40.33597;      0.36755; 96.39933;1.00000
425.39237;40.38399;      0.36997; 96.38595;1.00000
425.87583;40.43201;      0.36963; 96.37367;1.00000
426.36625;40.48003;      0.37018; 96.36099;1.00000
426.86156;40.52804;      0.37081; 96.34853;1.00000
427.35390;40.57606;      0.37231; 96.33875;1.00000
427.83093;40.62408;      0.37186; 96.33072;1.00000
428.31602;40.67210;      0.37281; 96.32273;1.00000
428.81125;40.72012;      0.37476; 96.31397;1.00000
429.30595;40.76814;      0.37441; 96.30446;1.00000
429.78208;40.81616;      0.37481; 96.29160;1.00000
430.29007;40.86418;      0.37565; 96.28194;1.00000
430.78243;40.91220;      0.37682; 96.27464;1.00000
431.26413;40.96022;      0.37728; 96.25991;1.00000
431.75328;41.00823;      0.37736; 96.24439;1.00000
432.24221;41.05625;      0.37871; 96.23575;1.00000
432.72871;41.10427;      0.37953; 96.22503;1.00000
433.21444;41.15229;      0.37941; 96.21656;1.00000
433.70079;41.20031;      0.38079; 96.20490;1.00000
434.19581;41.24833;      0.38128; 96.18653;1.00000
434.68313;41.29635;      0.38237; 96.17040;1.00000
435.15748;41.34437;      0.38282; 96.15610;1.00000
435.66219;41.39239;      0.38300; 96.14553;1.00000
436.14897;41.44041;      0.38413; 96.13589;1.00000
436.63333;41.48842;      0.38464; 96.11680;1.00000
437.12028;41.53644;      0.38477; 96.10151;1.00000
437.60726;41.58446;      0.38623; 96.09599;1.00000
438.09876;41.63248;      0.38703; 96.08761;1.00000
438.59849;41.68050;      0.38725; 96.07488;1.00000
439.07921;41.72852;      0.38877; 96.06319;1.00000
439.57061;41.77654;      0.38889; 96.05567;1.00000
440.05037;41.82456;      0.38993; 96.04236;1.00000
440.53917;41.87258;      0.39068; 96.02414;1.00000
441.02977;41.92060;      0.39234; 96.01084;1.00000
441.52091;41.96861;      0.39221; 96.00044;1.00000
442.00976;42.01663;      0.39313; 95.98600;1.00000
442.49305;42.06465;      0.39375; 95.97361;1.00000
442.98533;42.11267;      0.39486; 95.96455;1.00000
443.47595;42.16069;      0.39609; 95.95281;1.00000
443.96353;42.20871;      0.39535; 95.93552;1.00000
444.43663;42.25673;      0.39729; 95.92129;1.00000
444.93553;42.30475;      0.39818; 95.91399;1.00000
445.42294;42.35277;      0.39834; 95.89714;1.00000
445.91898;42.40079;      0.39982; 95.88279;1.00000
446.39460;42.44880;      0.39985; 95.86547;1.00000
446.87948;42.49682;      0.40213; 95.84936;1.00000
447.36933;42.54484;      0.40185; 95.83226;1.00000
447.86605;42.59286;      0.40236; 95.81507;1.00000
448.34807;42.64088;      0.40288; 95.79355;1.00000
448.83519;42.68890;      0.40401; 95.77733;1.00000
449.33155;42.73692;      0.40517; 95.76090;1.00000
449.82370;42.78494;      0.40618; 95.74000;1.00000
450.31048;42.83296;      0.40654; 95.72390;1.00000
450.79649;42.88098;      0.40680; 95.70977;1.00000
451.27915;42.92899;      0.40798; 95.69630;1.00000
451.77479;42.97701;      0.40837; 95.68391;1.00000
452.26248;43.02503;      0.40951; 95.67189;1.00000
452.76119;43.07305;      0.41014; 95.64927;1.00000
453.24779;43.12107;      0.41022; 95.63468;1.00000
453.73618;43.16909;      0.41178; 95.62024;1.00000
454.22586;43.21711;      0.41177; 95.60005;1.00000
454.71954;43.26513;      0.41200; 95.58701;1.00000
455.19992;43.31315;      0.41254; 95.57206;1.00000
455.69051;43.36117;      0.41417; 95.54279;1.00000
456.19022;43.40918;      0.41421; 95.52628;1.00000
456.67519;43.45720;      0.41466; 95.50433;1.00000
457.16778;43.50522;      0.41529; 95.48029;1.00000
457.65906;43.55324;      0.41602; 95.45898;1.00000
458.15139;43.60126;      0.41725; 95.43451;1.00000
458.63641;43.64928;      0.41790; 95.41638;1.00000
459.12677;43.69730;      0.41913; 95.39922;1.00000
459.61926;43.74532;      0.41946; 95.37152;1.00000
460.11903;43.79334;      0.41913; 95.35596;1.00000
460.59484;43.84136;      0.42128; 95.33826;1.00000
461.09478;43.88937;      0.42099; 95.31425;1.00000
461.57993;43.93739;      0.42170; 95.29591;1.00000
462.07523;43.98541;      0.42162; 95.27306;1.00000
462.56515;44.03343;      0.42286; 95.25543;1.00000
463.05937;44.08145;      0.42311; 95.23347;1.00000
463.54275;44.12947;      0.42328; 95.21221;1.00000
464.03750;44.17749;      0.42380; 95.19307;1.00000
464.52176;44.22551;      0.42519; 95.16091;1.00000
465.01668;44.27353;      0.42484; 95.14774;1.00000
465.49700;44.32155;      0.42577; 95.12003;1.00000
465.99536;44.36956;      0.42511; 95.09921;1.00000
466.48978;44.41758;      0.42564; 95.06574;1.00000
466.98327;44.46560;      0.42617; 95.05245;1.00000
467.46519;44.51362;      0.42592; 95.03480;1.00000
467.95628;44.56164;      0.42688; 95.01331;1.00000
468.44990;44.60966;      0.42761; 94.99113;1.00000
468.94522;44.65768;      0.42705; 94.97089;1.00000
469.43088;44.70570;      0.42754; 94.93880;1.00000
469.93727;44.75372;      0.42793; 94.91527;1.00000
470.41025;44.80174;      0.42735; 94.89044;1.00000
470.91339;44.84975;      0.42867; 94.86417;1.00000
471.40242;44.89777;      0.42814; 94.83536;1.00000
471.89955;44.94579;      0.42835; 94.81146;1.00000
472.38029;44.99381;      0.42823; 94.79157;1.00000
472.87743;45.04183;      0.42814; 94.76618;1.00000
473.35357;45.08985;      0.42831; 94.73700;1.00000
473.84681;45.13787;      0.42897; 94.71280;1.00000
474.33101;45.18589;      0.42783; 94.69151;1.00000
474.83293;45.23391;      0.42868; 94.66424;1.00000
475.32638;45.28193;      0.42844; 94.64007;1.00000
475.81240;45.32994;      0.42854; 94.61804;1.00000
476.30706;45.37796;      0.42892; 94.58888;1.00000
476.78669;45.42598;      0.42902; 94.55331;1.00000
477.28022;45.47400;      0.42936; 94.52679;1.00000
477.77035;45.52202;      0.42908; 94.49243;1.00000
478.25838;45.57004;      0.42976; 94.46896;1.00000
478.74992;45.61806;      0.42872; 94.43687;1.00000
479.23658;45.66608;      0.42938; 94.39501;1.00000
479.72851;45.71410;      0.42898; 94.37779;1.00000
480.21719;45.76212;      0.42975; 94.34899;1.00000
480.69742;45.81014;      0.42945; 94.30986;1.00000
481.18734;45.85815;      0.42922; 94.28737;1.00000
481.67775;45.90617;      0.43001; 94.25203;1.00000
482.16947;45.95419;      0.42930; 94.21208;1.00000
482.66083;46.00221;      0.42973; 94.19168;1.00000
483.15636;46.05023;      0.43061; 94.15990;1.00000
483.63276;46.09825;      0.43015; 94.12270;1.00000
484.12089;46.14627;      0.42996; 94.08357;1.00000
484.61713;46.19429;      0.42996; 94.04171;1.00000
485.10268;46.24231;      0.43115; 94.02225;1.00000
485.59234;46.29033;      0.43055; 93.99080;1.00000
486.07194;46.33834;      0.43001; 93.95422;1.00000
486.57108;46.38636;      0.43076; 93.92876;1.00000
487.05104;46.43438;      0.43116; 93.88745;1.00000
487.54587;46.48240;      0.43091; 93.85961;1.00000
488.03543;46.53042;      0.43228; 93.83068;1.00000
488.52302;46.57844;      0.43215; 93.79292;1.00000
489.00612;46.62646;      0.43199; 93.76129;1.00000
489.50194;46.67448;      0.43206; 93.72058;1.00000
489.98158;46.72250;      0.43154; 93.69839;1.00000
490.47808;46.77052;      0.43174; 93.65931;1.00000
490.96619;46.81853;      0.43224; 93.62527;1.00000
491.45443;46.86655;      0.43249; 93.58475;1.00000
491.94842;46.91457;      0.43256; 93.54990;1.00000
492.43806;46.96259;      0.43243; 93.50968;1.00000
492.91546;47.01061;      0.43341; 93.46275;1.00000
493.41746;47.05863;      0.43336; 93.41893;1.00000
493.91124;47.10665;      0.43339; 93.38263;1.00000
494.38585;47.15467;      0.43391; 93.34526;1.00000
494.87193;47.20269;      0.43347; 93.29977;1.00000
495.36999;47.25071;      0.43528; 93.25366;1.00000
495.84551;47.29872;      0.43474; 93.22171;1.00000
496.33904;47.34674;      0.43458; 93.17998;1.00000
496.83402;47.39476;      0.43491; 93.14315;1.00000
497.32479;47.44278;      0.43653; 93.10067;1.00000
497.80292;47.49080;      0.43544; 93.06230;1.00000
498.29769;47.53882;      0.43698; 93.02305;1.00000
498.78237;47.58684;      0.43629; 92.97524;1.00000
499.27608;47.63486;      0.43680; 92.94984;1.00000
499.75715;47.68288;      0.43807; 92.91350;1.00000
500.24000;47.73090;      0.43743; 92.87558;1.00000
500.74329;47.77891;      0.43796; 92.83796;1.00000
501.22001;47.82693;      0.43845; 92.80475;1.00000
501.71228;47.87495;      0.43846; 92.77109;1.00000
502.20077;47.92297;      0.43890; 92.72971;1.00000
502.68996;47.97099;      0.44032; 92.68369;1.00000
503.16711;48.01901;      0.44126; 92.65459;1.00000
503.65886;48.06703;      0.44028; 92.61481;1.00000
504.14729;48.11505;      0.44141; 92.58315;1.00000
504.62956;48.16307;      0.44138; 92.54542;1.00000
505.12146;48.21109;      0.44186; 92.50516;1.00000
505.60748;48.25910;      0.44235; 92.46411;1.00000
506.09538;48.30712;      0.44354; 92.42173;1.00000
506.57589;48.35514;      0.44398; 92.39111;1.00000
507.06565;48.40316;      0.44391; 92.34875;1.00000
507.56647;48.45118;      0.44548; 92.30870;1.00000
508.04096;48.49920;      0.44520; 92.26492;1.00000
508.53364;48.54722;      0.44564; 92.22757;1.00000
509.00852;48.59524;      0.44651; 92.18806;1.00000
509.49088;48.64326;      0.44732; 92.14308;1.00000
509.98837;48.69128;      0.44679; 92.10573;1.00000
510.47511;48.73929;      0.44764; 92.06578;1.00000
510.96733;48.78731;      0.44803; 92.01825;1.00000
511.44177;48.83533;      0.44872; 91.97504;1.00000
511.93534;48.88335;      0.44952; 91.94123;1.00000
512.41588;48.93137;      0.45042; 91.90138;1.00000
512.90607;48.97939;      0.45042; 91.86549;1.00000
513.40167;49.02741;      0.45099; 91.82101;1.00000
513.87229;49.07543;      0.45151; 91.79061;1.00000
514.36184;49.12345;      0.45193; 91.75427;1.00000
514.84512;49.17147;      0.45306; 91.71575;1.00000
515.33717;49.21948;      0.45390; 91.67325;1.00000
515.81987;49.26750;      0.45451; 91.63334;1.00000
516.30378;49.31552;      0.45533; 91.58502;1.00000
516.78398;49.36354;      0.45557; 91.54953;1.00000
517.28229;49.41156;      0.45673; 91.50684;1.00000
517.75886;49.45958;      0.45792; 91.45831;1.00000
518.24107;49.50760;      0.45707; 91.43123;1.00000
518.72055;49.55562;      0.45854; 91.38311;1.00000
519.21041;49.60364;      0.46014; 91.33636;1.00000
519.69461;49.65166;      0.46008; 91.29664;1.00000
520.19166;49.69967;      0.46174; 91.25152;1.00000
520.67017;49.74769;      0.46243; 91.21679;1.00000
521.14776;49.79571;      0.46367; 91.17315;1.00000
521.63763;49.84373;      0.46315; 91.13871;1.00000
522.11183;49.89175;      0.46386; 91.09365;1.00000
522.60371;49.93977;      0.46479; 91.05619;1.00000
523.09440;49.98779;      0.46572; 91.01232;1.00000
523.56687;50.03581;      0.46720; 90.96758;1.00000
524.06877;50.08383;      0.46826; 90.93641;1.00000
524.54549;50.13185;      0.46807; 90.89361;1.00000
525.02272;50.17986;      0.46890; 90.85708;1.00000
525.51418;50.22788;      0.46933; 90.81805;1.00000
525.99621;50.27590;      0.47025; 90.77623;1.00000
526.47667;50.32392;      0.47176; 90.73048;1.00000
526.96594;50.37194;      0.47288; 90.68317;1.00000
527.45055;50.41996;      0.47378; 90.65204;1.00000
527.93788;50.46798;      0.47410; 90.61583;1.00000
528.41923;50.51600;      0.47509; 90.56635;1.00000
528.90892;50.56402;      0.47509; 90.53085;1.00000
529.38674;50.61204;      0.47707; 90.49363;1.00000
529.86255;50.66006;      0.47684; 90.46497;1.00000
530.36543;50.70807;      0.47805; 90.42875;1.00000
530.84300;50.75609;      0.47937; 90.38531;1.00000
531.32285;50.80411;      0.48077; 90.35957;1.00000
531.81287;50.85213;      0.48159; 90.32337;1.00000
532.28554;50.90015;      0.48209; 90.29092;1.00000
532.78301;50.94817;      0.48266; 90.25585;1.00000
533.26918;50.99619;      0.48385; 90.21537;1.00000
533.75211;51.04421;      0.48392; 90.17950;1.00000
534.23175;51.09223;      0.48520; 90.14549;1.00000
534.72062;51.14025;      0.48546; 90.11486;1.00000
535.20859;51.18826;      0.48726; 90.07595;1.00000
535.68749;51.23628;      0.48756; 90.03373;1.00000
536.17186;51.28430;      0.48830; 90.00073;1.00000
536.66777;51.33232;      0.48949; 89.96388;1.00000
537.14162;51.38034;      0.49050; 89.92881;1.00000
537.63159;51.42836;      0.49100; 89.88468;1.00000
538.11738;51.47638;      0.49183; 89.86271;1.00000
538.59499;51.52440;      0.49308; 89.83504;1.00000
539.08967;51.57242;      0.49314; 89.79950;1.00000
539.57664;51.62044;      0.49397; 89.76859;1.00000
540.04567;51.66845;      0.49408; 89.73962;1.00000
540.53749;51.71647;      0.49572; 89.70736;1.00000
541.02229;51.76449;      0.49630; 89.67355;1.00000
541.50599;51.81251;      0.49714; 89.62791;1.00000
541.98210;51.86053;      0.49783; 89.60870;1.00000
542.47116;51.90855;      0.49853; 89.57858;1.00000
542.95362;51.95657;      0.49952; 89.53898;1.00000
543.44036;52.00459;      0.50093; 89.51712;1.00000
543.92874;52.05261;      0.50077; 89.48954;1.00000
544.40628;52.10063;      0.50184; 89.45966;1.00000
544.88434;52.14864;      0.50290; 89.43166;1.00000
545.37039;52.19666;      0.50353; 89.39783;1.00000
545.85313;52.24468;      0.50452; 89.38175;1.00000
546.34688;52.29270;      0.50500; 89.34880;1.00000
546.83354;52.34072;      0.50539; 89.32137;1.00000
547.31070;52.38874;      0.50732; 89.29329;1.00000
547.78893;52.43676;      0.50715; 89.26346;1.00000
548.26904;52.48478;      0.50811; 89.24052;1.00000
548.75751;52.53280;      0.50867; 89.21202;1.00000
549.23089;52.58082;      0.50986; 89.18860;1.00000
549.72392;52.62883;      0.50908; 89.16088;1.00000
550.20500;52.67685;      0.51100; 89.13465;1.00000
550.68104;52.72487;      0.51235; 89.10444;1.00000
551.16850;52.77289;      0.51277; 89.07975;1.00000
551.63567;52.82091;      0.51373; 89.04851;1.00000
552.12290;52.86893;      0.51461; 89.02310;1.00000
552.61012;52.91695;      0.51470; 88.99676;1.00000
553.08734;52.96497;      0.51537; 88.98057;1.00000
553.56577;53.01299;      0.51618; 88.95361;1.00000
554.05644;53.06101;      0.51703; 88.93858;1.00000
554.54105;53.10902;      0.51679; 88.91090;1.00000
555.02105;53.15704;      0.51830; 88.89323;1.00000
555.49707;53.20506;      0.51896; 88.87012;1.00000
555.97710;53.25308;      0.51939; 88.84511;1.00000
556.46635;53.30110;      0.52022; 88.82069;1.00000
556.94450;53.34912;      0.52086; 88.78819;1.00000
557.41568;53.39714;      0.52214; 88.76829;1.00000
557.89887;53.44516;      0.52205; 88.73648;1.00000
558.38668;53.49318;      0.52276; 88.71148;1.00000
558.86868;53.54120;      0.52368; 88.68956;1.00000
559.34444;53.58921;      0.52498; 88.66534;1.00000
559.82214;53.63723;      0.52520; 88.64294;1.00000
560.31074;53.68525;      0.52467; 88.61114;1.00000
560.79379;53.73327;      0.52649; 88.58664;1.00000
561.27840;53.78129;      0.52684; 88.55428;1.00000
561.74893;53.82931;      0.52748; 88.52958;1.00000
562.23567;53.87733;      0.52780; 88.50623;1.00000
562.72188;53.92535;      0.52822; 88.48806;1.00000
563.20090;53.97337;      0.52989; 88.46287;1.00000
563.68879;54.02139;      0.52987; 88.44720;1.00000
564.16215;54.06940;      0.53045; 88.41703;1.00000
564.64736;54.11742;      0.53052; 88.39745;1.00000
565.12768;54.16544;      0.53201; 88.37204;1.00000
565.61021;54.21346;      0.53230; 88.34737;1.00000
566.09253;54.26148;      0.53252; 88.32859;1.00000
566.56980;54.30950;      0.53327; 88.29733;1.00000
567.04642;54.35752;      0.53403; 88.28595;1.00000
567.53011;54.40554;      0.53522; 88.26599;1.00000
568.00749;54.45356;      0.53536; 88.24042;1.00000
568.49391;54.50158;      0.53662; 88.21749;1.00000
568.97078;54.54959;      0.53772; 88.18413;1.00000
569.45183;54.59761;      0.53848; 88.16101;1.00000
569.93676;54.64563;      0.53807; 88.13340;1.00000
570.41722;54.69365;      0.53857; 88.10540;1.00000
570.90269;54.74167;      0.54000; 88.08922;1.00000
571.38062;54.78969;      0.54047; 88.06813;1.00000
571.86165;54.83771;      0.54175; 88.04041;1.00000
572.34791;54.88573;      0.54173; 88.02157;1.00000
572.82620;54.93375;      0.54300; 88.00705;1.00000
573.30930;54.98177;      0.54347; 87.98504;1.00000
573.78088;55.02978;      0.54366; 87.96309;1.00000
574.26986;55.07780;      0.54434; 87.94612;1.00000
574.75955;55.12582;      0.54488; 87.92639;1.00000
575.22931;55.17384;      0.54552; 87.90048;1.00000
575.71797;55.22186;      0.54608; 87.88518;1.00000
576.19278;55.26988;      0.54657; 87.87500;1.00000
576.67623;55.31790;      0.54723; 87.86175;1.00000
577.15892;55.36592;      0.54846; 87.84467;1.00000
577.63743;55.41394;      0.54902; 87.83183;1.00000
578.11753;55.46196;      0.54914; 87.81250;1.00000
578.60079;55.50997;      0.55076; 87.79500;1.00000
579.07474;55.55799;      0.55086; 87.78065;1.00000
579.56638;55.60601;      0.55145; 87.76140;1.00000
580.04861;55.65403;      0.55280; 87.74608;1.00000
580.52719;55.70205;      0.55282; 87.73321;1.00000
581.00665;55.75007;      0.55435; 87.71998;1.00000
581.48708;55.79809;      0.55515; 87.69446;1.00000
581.96562;55.84611;      0.55448; 87.68120;1.00000
582.45104;55.89413;      0.55613; 87.66563;1.00000
582.92612;55.94215;      0.55649; 87.64514;1.00000
583.41377;55.99017;      0.55709; 87.62995;1.00000
583.89032;56.03818;      0.55740; 87.61642;1.00000
584.37859;56.08620;      0.55795; 87.59221;1.00000
584.85883;56.13422;      0.55905; 87.58077;1.00000
585.34416;56.18224;      0.55984; 87.56842;1.00000
585.81758;56.23026;      0.55992; 87.54991;1.00000
586.31531;56.27828;      0.56166; 87.53470;1.00000
586.78214;56.32630;      0.56203; 87.51713;1.00000
587.27087;56.37432;      0.56292; 87.50171;1.00000
587.75055;56.42234;      0.56364; 87.48603;1.00000
588.21961;56.47036;      0.56457; 87.46378;1.00000
588.70604;56.51837;      0.56516; 87.44316;1.00000
589.18697;56.56639;      0.56562; 87.43122;1.00000
589.67359;56.61441;      0.56607; 87.40698;1.00000
590.15123;56.66243;      0.56708; 87.38624;1.00000
590.62452;56.71045;      0.56765; 87.36987;1.00000
591.11185;56.75847;      0.56743; 87.35646;1.00000
591.59097;56.80649;      0.56978; 87.33902;1.00000
592.06909;56.85451;      0.56957; 87.31399;1.00000
592.54688;56.90253;      0.57038; 87.30416;1.00000
593.03564;56.95055;      0.57191; 87.28679;1.00000
593.51498;56.99856;      0.57188; 87.26945;1.00000
593.98377;57.04658;      0.57375; 87.25424;1.00000
594.47745;57.09460;      0.57412; 87.23797;1.00000
594.95180;57.14262;      0.57444; 87.21845;1.00000
595.42458;57.19064;      0.57519; 87.20192;1.00000
595.91270;57.23866;      0.57645; 87.18841;1.00000
596.38577;57.28668;      0.57649; 87.17670;1.00000
596.85724;57.33470;      0.57770; 87.16261;1.00000
597.34823;57.38272;      0.57897; 87.14500;1.00000
597.82953;57.43074;      0.57966; 87.12667;1.00000
598.30550;57.47875;      0.58019; 87.10947;1.00000
598.78793;57.52677;      0.58107; 87.09464;1.00000
599.25770;57.57479;      0.58217; 87.06505;1.00000
599.73619;57.62281;      0.58212; 87.05414;1.00000
600.22627;57.67083;      0.58305; 87.04080;1.00000
600.69790;57.71885;      0.58374; 87.02637;1.00000
601.17407;57.76687;      0.58494; 87.00589;1.00000
601.64938;57.81489;      0.58582; 86.98183;1.00000
602.13902;57.86291;      0.58674; 86.96502;1.00000
602.62386;57.91093;      0.58725; 86.95065;1.00000
603.09897;57.95894;      0.58718; 86.93439;1.00000
603.57845;58.00696;      0.58832; 86.92092;1.00000
604.06106;58.05498;      0.58935; 86.89925;1.00000
604.53220;58.10300;      0.58953; 86.88222;1.00000
605.01578;58.15102;      0.59118; 86.86765;1.00000
605.48533;58.19904;      0.59103; 86.85644;1.00000
605.96906;58.24706;      0.59232; 86.83691;1.00000
606.45031;58.29508;      0.59283; 86.82240;1.00000
606.92738;58.34310;      0.59309; 86.80074;1.00000
607.40609;58.39112;      0.59457; 86.78179;1.00000
607.88511;58.43913;      0.59511; 86.76826;1.00000
608.37298;58.48715;      0.59511; 86.75287;1.00000
608.85391;58.53517;      0.59545; 86.74012;1.00000
609.32032;58.58319;      0.59699; 86.72266;1.00000
609.79873;58.63121;      0.59730; 86.70569;1.00000
610.29004;58.67923;      0.59864; 86.69317;1.00000
610.76189;58.72725;      0.59959; 86.67607;1.00000
611.23594;58.77527;      0.59955; 86.66042;1.00000
611.72102;58.82329;      0.60077; 86.63733;1.00000
612.21528;58.87131;      0.60228; 86.62164;1.00000
612.67898;58.91932;      0.60283; 86.60625;1.00000
613.18011;58.96734;      0.60349; 86.58806;1.00000
613.64452;59.01536;      0.60462; 86.57329;1.00000
614.12813;59.06338;      0.60465; 86.56140;1.00000
614.61202;59.11140;      0.60615; 86.54962;1.00000
615.08700;59.15942;      0.60645; 86.53317;1.00000
615.57144;59.20744;      0.60697; 86.51535;1.00000
616.05540;59.25546;      0.60762; 86.49789;1.00000
616.53424;59.30348;      0.60838; 86.48706;1.00000
617.01495;59.35150;      0.60960; 86.47267;1.00000
617.50937;59.39951;      0.61034; 86.46017;1.00000
617.98601;59.44753;      0.61104; 86.44388;1.00000
618.46410;59.49555;      0.61200; 86.42791;1.00000
618.94262;59.54357;      0.61286; 86.41170;1.00000
619.42852;59.59159;      0.61297; 86.38760;1.00000
619.91243;59.63961;      0.61342; 86.37609;1.00000
620.39496;59.68763;      0.61507; 86.36077;1.00000
620.88308;59.73565;      0.61628; 86.34504;1.00000
621.35182;59.78367;      0.61658; 86.32546;1.00000
621.83721;59.83169;      0.61884; 86.31163;1.00000
622.31814;59.87970;      0.61835; 86.30008;1.00000
622.79564;59.92772;      0.61921; 86.28664;1.00000
623.27551;59.97574;      0.62038; 86.27720;1.00000
623.76195;60.02376;      0.62167; 86.25957;1.00000
624.23607;60.07178;      0.62175; 86.24592;1.00000
624.71497;60.11980;      0.62309; 86.23904;1.00000
625.19833;60.16782;      0.62420; 86.22844;1.00000
625.67975;60.21584;      0.62515; 86.22144;1.00000
626.16265;60.26386;      0.62596; 86.20747;1.00000
626.64460;60.31188;      0.62707; 86.19162;1.00000
627.11893;60.35989;      0.62821; 86.17902;1.00000
627.60015;60.40791;      0.62860; 86.16382;1.00000
628.08254;60.45593;      0.62970; 86.15032;1.00000
628.55983;60.50395;      0.63021; 86.13896;1.00000
629.04773;60.55197;      0.63122; 86.11133;1.00000
629.52993;60.59999;      0.63240; 86.10300;1.00000
630.00728;60.64801;      0.63339; 86.09156;1.00000
630.48649;60.69603;      0.63321; 86.07619;1.00000
630.96030;60.74405;      0.63459; 86.06317;1.00000
631.44588;60.79207;      0.63499; 86.04958;1.00000
631.91684;60.84009;      0.63554; 86.03699;1.00000
632.39060;60.88810;      0.63646; 86.02540;1.00000
632.87041;60.93612;      0.63746; 86.01451;1.00000
633.35113;60.98414;      0.63794; 86.00317;1.00000
633.83685;61.03216;      0.63905; 85.98717;1.00000
634.31778;61.08018;      0.63959; 85.97197;1.00000
634.78569;61.12820;      0.64112; 85.96430;1.00000
635.27009;61.17622;      0.64120; 85.95095;1.00000
635.74826;61.22424;      0.64261; 85.93213;1.00000
636.22839;61.27226;      0.64363; 85.92023;1.00000
636.72247;61.32028;      0.64484; 85.90594;1.00000
637.19649;61.36829;      0.64585; 85.89338;1.00000
637.64148;61.41631;      0.64613; 85.88272;1.00000
638.12368;61.46433;      0.64692; 85.86905;1.00000
638.60707;61.51235;      0.64740; 85.85864;1.00000
639.09045;61.56037;      0.64825; 85.84989;1.00000
639.55800;61.60839;      0.64920; 85.82973;1.00000
640.04020;61.65641;      0.65083; 85.81979;1.00000
640.51483;61.70443;      0.65061; 85.80898;1.00000
640.99832;61.75245;      0.65224; 85.80059;1.00000
641.47593;61.80047;      0.65163; 85.79191;1.00000
641.96071;61.84848;      0.65297; 85.78126;1.00000
642.43722;61.89650;      0.65383; 85.76599;1.00000
642.90641;61.94452;      0.65413; 85.75164;1.00000
643.39037;61.99254;      0.65556; 85.73745;1.00000
643.86835;62.04056;      0.65642; 85.72483;1.00000
644.33300;62.08858;      0.65694; 85.71149;1.00000
644.81743;62.13660;      0.65797; 85.69270;1.00000
645.32606;62.18462;      0.65868; 85.67407;1.00000
645.80816;62.23264;      0.66010; 85.66880;1.00000
646.28611;62.28066;      0.66041; 85.66087;1.00000
646.77044;62.32867;      0.66140; 85.65126;1.00000
647.24458;62.37669;      0.66218; 85.64264;1.00000
647.72858;62.42471;      0.66316; 85.63151;1.00000
648.20677;62.47273;      0.66324; 85.61615;1.00000
648.68628;62.52075;      0.66458; 85.60381;1.00000
649.15425;62.56877;      0.66525; 85.59330;1.00000
649.63570;62.61679;      0.66529; 85.57906;1.00000
650.11730;62.66481;      0.66585; 85.56491;1.00000
650.59579;62.71283;      0.66714; 85.55443;1.00000
651.08132;62.76085;      0.66711; 85.54390;1.00000
651.54872;62.80886;      0.66831; 85.52154;1.00000
652.02976;62.85688;      0.66898; 85.51073;1.00000
652.50684;62.90490;      0.66896; 85.50103;1.00000
652.98935;62.95292;      0.67050; 85.48915;1.00000
653.46102;63.00094;      0.67147; 85.47478;1.00000
653.94593;63.04896;      0.67154; 85.46326;1.00000
654.42959;63.09698;      0.67220; 85.45258;1.00000
654.89212;63.14500;      0.67320; 85.44152;1.00000
655.37418;63.19302;      0.67418; 85.43266;1.00000
655.85315;63.24104;      0.67411; 85.42173;1.00000
656.33848;63.28905;      0.67340; 85.41131;1.00000
656.81723;63.33707;      0.67542; 85.38904;1.00000
657.29225;63.38509;      0.67573; 85.37906;1.00000
657.76211;63.43311;      0.67671; 85.36705;1.00000
658.24786;63.48113;      0.67717; 85.35266;1.00000
658.72918;63.52915;      0.67681; 85.34119;1.00000
659.20715;63.57717;      0.67797; 85.33004;1.00000
659.68623;63.62519;      0.67913; 85.31630;1.00000
660.17152;63.67321;      0.68009; 85.30564;1.00000
660.64670;63.72123;      0.68048; 85.29778;1.00000
661.12628;63.76924;      0.68085; 85.28716;1.00000
661.60926;63.81726;      0.68189; 85.27459;1.00000
662.07458;63.86528;      0.68130; 85.26129;1.00000
662.55603;63.91330;      0.68176; 85.24816;1.00000
663.03426;63.96132;      0.68365; 85.22032;1.00000
663.51918;64.00934;      0.68398; 85.21111;1.00000
663.99347;64.05736;      0.68473; 85.20150;1.00000
664.47871;64.10538;      0.68482; 85.18439;1.00000
664.95816;64.15340;      0.68533; 85.16853;1.00000
665.43847;64.20142;      0.68595; 85.15766;1.00000
665.90871;64.24943;      0.68669; 85.14318;1.00000
666.39715;64.29745;      0.68810; 85.13072;1.00000
666.86351;64.34547;      0.68716; 85.11936;1.00000
667.34501;64.39349;      0.68819; 85.10724;1.00000
667.82714;64.44151;      0.68878; 85.08768;1.00000
668.30344;64.48953;      0.68924; 85.08196;1.00000
668.79771;64.53755;      0.69049; 85.07826;1.00000
669.26919;64.58557;      0.69048; 85.06997;1.00000
669.74189;64.63359;      0.69146; 85.05818;1.00000
670.22346;64.68161;      0.69143; 85.04751;1.00000
670.69639;64.72962;      0.69190; 85.03216;1.00000
671.17597;64.77764;      0.69195; 85.01942;1.00000
671.65169;64.82566;      0.69245; 85.00990;1.00000
672.12901;64.87368;      0.69307; 85.00093;1.00000
672.61428;64.92170;      0.69332; 84.98850;1.00000
673.08427;64.96972;      0.69465; 84.97507;1.00000
673.56900;65.01774;      0.69506; 84.96636;1.00000
674.04194;65.06576;      0.69473; 84.95348;1.00000
674.52256;65.11378;      0.69609; 84.93164;1.00000
675.00045;65.16180;      0.69549; 84.92387;1.00000
675.47517;65.20981;      0.69686; 84.91703;1.00000
675.95017;65.25783;      0.69671; 84.90711;1.00000
676.43260;65.30585;      0.69744; 84.89942;1.00000
676.90706;65.35387;      0.69800; 84.89267;1.00000
677.39122;65.40189;      0.69872; 84.88309;1.00000
677.86110;65.44991;      0.69924; 84.86602;1.00000
678.35021;65.49793;      0.69915; 84.85056;1.00000
678.81952;65.54595;      0.69911; 84.83972;1.00000
679.29636;65.59397;      0.69981; 84.83020;1.00000
679.78118;65.64199;      0.69993; 84.82011;1.00000
680.26006;65.69001;      0.70046; 84.79800;1.00000
680.72358;65.73802;      0.70093; 84.79203;1.00000
681.20824;65.78604;      0.70087; 84.78664;1.00000
681.68921;65.83406;      0.70176; 84.77849;1.00000
682.16297;65.88208;      0.70193; 84.76456;1.00000
682.64297;65.93010;      0.70191; 84.75399;1.00000
683.12238;65.97812;      0.70220; 84.74641;1.00000
683.59670;66.02614;      0.70248; 84.73502;1.00000
684.07197;66.07416;      0.70314; 84.72204;1.00000
684.55532;66.12218;      0.70307; 84.71164;1.00000
685.02207;66.17020;      0.70420; 84.70296;1.00000
685.50284;66.21821;      0.70394; 84.69344;1.00000
685.98565;66.26623;      0.70438; 84.68232;1.00000
686.46918;66.31425;      0.70473; 84.67313;1.00000
686.94351;66.36227;      0.70497; 84.66253;1.00000
687.42195;66.41029;      0.70533; 84.65194;1.00000
687.89994;66.45831;      0.70530; 84.63762;1.00000
688.38052;66.50633;      0.70653; 84.62169;1.00000
688.85434;66.55435;      0.70683; 84.61453;1.00000
689.33802;66.60237;      0.70683; 84.60556;1.00000
689.81989;66.65039;      0.70679; 84.59292;1.00000
690.30375;66.69840;      0.70662; 84.58157;1.00000
690.76941;66.74642;      0.70727; 84.56434;1.00000
691.25132;66.79444;      0.70799; 84.54856;1.00000
691.72350;66.84246;      0.70745; 84.53728;1.00000
692.19679;66.89048;      0.70810; 84.52489;1.00000
692.66680;66.93850;      0.70845; 84.51330;1.00000
693.15410;66.98652;      0.70888; 84.50193;1.00000
693.63995;67.03454;      0.70878; 84.49322;1.00000
694.11347;67.08256;      0.70860; 84.47164;1.00000
694.60082;67.13058;      0.70964; 84.46093;1.00000
695.07459;67.17859;      0.70983; 84.45715;1.00000
695.54813;67.22661;      0.70927; 84.45032;1.00000
696.02840;67.27463;      0.71009; 84.43773;1.00000
696.50181;67.32265;      0.71029; 84.42556;1.00000
696.98465;67.37067;      0.71076; 84.41379;1.00000
697.46274;67.41869;      0.71142; 84.39852;1.00000
697.93991;67.46671;      0.71090; 84.38744;1.00000
698.42195;67.51473;      0.71104; 84.37855;1.00000
698.89760;67.56275;      0.71037; 84.37150;1.00000
699.36843;67.61077;      0.71168; 84.36284;1.00000
699.84867;67.65878;      0.71217; 84.35226;1.00000
700.32641;67.70680;      0.71248; 84.34730;1.00000
700.79882;67.75482;      0.71169; 84.34068;1.00000
701.28027;67.80284;      0.71230; 84.32276;1.00000
701.74848;67.85086;      0.71233; 84.31398;1.00000
702.23989;67.89888;      0.71269; 84.30825;1.00000
702.70696;67.94690;      0.71224; 84.29752;1.00000
703.18102;67.99492;      0.71188; 84.28707;1.00000
703.66323;68.04294;      0.71269; 84.27515;1.00000
704.14836;68.09096;      0.71217; 84.26177;1.00000
704.62412;68.13897;      0.71220; 84.24924;1.00000
705.09976;68.18699;      0.71241; 84.23763;1.00000
705.57890;68.23501;      0.71212; 84.22700;1.00000
706.05135;68.28303;      0.71198; 84.21643;1.00000
706.52696;68.33105;      0.71235; 84.20366;1.00000
707.01287;68.37907;      0.71091; 84.18544;1.00000
707.49853;68.42709;      0.71194; 84.17147;1.00000
707.96754;68.47511;      0.71184; 84.16734;1.00000
708.44918;68.52313;      0.71164; 84.15973;1.00000
708.93198;68.57115;      0.71067; 84.14764;1.00000
709.40503;68.61916;      0.71063; 84.13519;1.00000
709.89142;68.66718;      0.71140; 84.12439;1.00000
710.35889;68.71520;      0.71118; 84.11052;1.00000
710.84471;68.76322;      0.71058; 84.09907;1.00000
711.31321;68.81124;      0.71100; 84.08863;1.00000
711.80508;68.85926;      0.71046; 84.07622;1.00000
712.26953;68.90728;      0.71079; 84.06679;1.00000
712.75013;68.95530;      0.71059; 84.05884;1.00000
713.22948;69.00332;      0.71065; 84.03724;1.00000
713.69411;69.05134;      0.71038; 84.02776;1.00000
714.18226;69.09935;      0.71029; 84.01719;1.00000
714.65796;69.14737;      0.71029; 84.00751;1.00000
715.14115;69.19539;      0.71070; 83.98865;1.00000
715.61822;69.24341;      0.70986; 83.97030;1.00000
716.10241;69.29143;      0.71010; 83.95061;1.00000
716.56960;69.33945;      0.70936; 83.93712;1.00000
717.05424;69.38747;      0.71042; 83.92276;1.00000
717.53644;69.43549;      0.70878; 83.91023;1.00000
718.01477;69.48351;      0.70953; 83.89630;1.00000
718.48778;69.53153;      0.70925; 83.87517;1.00000
718.97944;69.57954;      0.70839; 83.85706;1.00000
719.45197;69.62756;      0.70818; 83.84770;1.00000
719.92783;69.67558;      0.70754; 83.83578;1.00000
720.40785;69.72360;      0.70716; 83.82055;1.00000
720.88029;69.77162;      0.70772; 83.80460;1.00000
721.36153;69.81964;      0.70689; 83.79111;1.00000
721.83612;69.86766;      0.70632; 83.78063;1.00000
722.31998;69.91568;      0.70588; 83.77148;1.00000
722.80117;69.96370;      0.70583; 83.76429;1.00000
723.27921;70.01172;      0.70626; 83.75676;1.00000
723.76145;70.05973;      0.70642; 83.74701;1.00000
724.23954;70.10775;      0.70533; 83.75186;1.00000
724.71400;70.15577;      0.70452; 83.74642;1.00000
725.19343;70.20379;      0.70496; 83.73728;1.00000
725.66882;70.25181;      0.70511; 83.72612;1.00000
726.14624;70.29983;      0.70404; 83.70804;1.00000
726.61436;70.34785;      0.70354; 83.70231;1.00000
727.09264;70.39587;      0.70369; 83.69367;1.00000
727.57132;70.44389;      0.70281; 83.68119;1.00000
728.04239;70.49191;      0.70271; 83.66880;1.00000
728.52019;70.53992;      0.70282; 83.66102;1.00000
729.00393;70.58794;      0.70224; 83.64466;1.00000
729.46792;70.63596;      0.70142; 83.62922;1.00000
729.94433;70.68398;      0.70113; 83.61695;1.00000
730.42205;70.73200;      0.70020; 83.60534;1.00000
730.90322;70.78002;      0.69992; 83.59500;1.00000
731.37081;70.82804;      0.69974; 83.58541;1.00000
731.85215;70.87606;      0.69872; 83.57462;1.00000
732.31745;70.92408;      0.69782; 83.55614;1.00000
732.80781;70.97210;      0.69717; 83.54961;1.00000
733.27815;71.02012;      0.69693; 83.54098;1.00000
733.75331;71.06813;      0.69625; 83.53123;1.00000
734.22346;71.11615;      0.69518; 83.52641;1.00000
734.70733;71.16417;      0.69489; 83.51957;1.00000
735.18431;71.21219;      0.69470; 83.51173;1.00000
735.65696;71.26021;      0.69290; 83.50192;1.00000
736.14216;71.30823;      0.69260; 83.49026;1.00000
736.59729;71.35625;      0.69217; 83.48011;1.00000
737.07645;71.40427;      0.69100; 83.47010;1.00000
737.55094;71.45229;      0.68954; 83.46344;1.00000
738.02789;71.50031;      0.69000; 83.45191;1.00000
738.51381;71.54832;      0.68856; 83.44061;1.00000
738.98450;71.59634;      0.68764; 83.42708;1.00000
739.46012;71.64436;      0.68734; 83.41127;1.00000
739.93932;71.69238;      0.68639; 83.39770;1.00000
740.40977;71.74040;      0.68639; 83.39295;1.00000
740.88409;71.78842;      0.68585; 83.38333;1.00000
741.36088;71.83644;      0.68423; 83.37559;1.00000
741.84017;71.88446;      0.68284; 83.36716;1.00000
742.31124;71.93248;      0.68354; 83.36056;1.00000
742.78603;71.98050;      0.68284; 83.35291;1.00000
743.26826;72.02851;      0.68275; 83.34229;1.00000
743.73974;72.07653;      0.68220; 83.33336;1.00000
744.21894;72.12455;      0.68164; 83.32497;1.00000
744.69312;72.17257;      0.68127; 83.31529;1.00000
745.17794;72.22059;      0.68047; 83.30592;1.00000
745.64765;72.26861;      0.68048; 83.29734;1.00000
746.12203;72.31663;      0.68014; 83.28667;1.00000
746.59543;72.36465;      0.67991; 83.27600;1.00000
747.07983;72.41267;      0.67943; 83.25563;1.00000
747.55077;72.46069;      0.67803; 83.24086;1.00000
748.02450;72.50870;      0.67740; 83.23033;1.00000
748.50597;72.55672;      0.67566; 83.21528;1.00000
748.98638;72.60474;      0.67559; 83.20244;1.00000
749.45172;72.65276;      0.67542; 83.19533;1.00000
749.92653;72.70078;      0.67466; 83.18379;1.00000
750.40585;72.74880;      0.67414; 83.17324;1.00000
750.87404;72.79682;      0.67328; 83.16364;1.00000
751.36110;72.84484;      0.67274; 83.15314;1.00000
751.83324;72.89286;      0.67272; 83.14051;1.00000
752.30526;72.94088;      0.67114; 83.12880;1.00000
752.77960;72.98889;      0.67098; 83.11627;1.00000
753.25748;73.03691;      0.67085; 83.10190;1.00000
753.72798;73.08493;      0.66961; 83.08039;1.00000
754.20618;73.13295;      0.66851; 83.06945;1.00000
754.68195;73.18097;      0.66806; 83.05882;1.00000
755.15801;73.22899;      0.66715; 83.04251;1.00000
755.63637;73.27701;      0.66788; 83.02689;1.00000
756.10321;73.32503;      0.66579; 83.01398;1.00000
756.57988;73.37305;      0.66588; 83.00464;1.00000
757.06191;73.42107;      0.66528; 82.99483;1.00000
757.53589;73.46908;      0.66474; 82.98515;1.00000
758.01324;73.51710;      0.66451; 82.97177;1.00000
758.48368;73.56512;      0.66347; 82.96200;1.00000
758.96218;73.61314;      0.66304; 82.95337;1.00000
759.43911;73.66116;      0.66340; 82.94475;1.00000
759.90218;73.70918;      0.66169; 82.93123;1.00000
760.38587;73.75720;      0.66111; 82.91644;1.00000
760.85924;73.80522;      0.66087; 82.91347;1.00000
761.33091;73.85324;      0.66005; 82.91276;1.00000
761.80813;73.90126;      0.65898; 82.90778;1.00000
762.28361;73.94927;      0.65915; 82.90120;1.00000
762.76206;73.99729;      0.65880; 82.89160;1.00000
763.23316;74.04531;      0.65825; 82.88183;1.00000
763.70698;74.09333;      0.65647; 82.87566;1.00000
764.17946;74.14135;      0.65644; 82.87089;1.00000
764.65469;74.18937;      0.65523; 82.86512;1.00000
765.13380;74.23739;      0.65457; 82.85117;1.00000
765.60434;74.28541;      0.65545; 82.83527;1.00000
766.08272;74.33343;      0.65402; 82.82318;1.00000
766.55872;74.38145;      0.65416; 82.81066;1.00000
767.03982;74.42946;      0.65241; 82.80010;1.00000
767.50010;74.47748;      0.65240; 82.79052;1.00000
767.98571;74.52550;      0.65167; 82.77581;1.00000
768.45870;74.57352;      0.65121; 82.76256;1.00000
768.92950;74.62154;      0.65020; 82.75875;1.00000
769.39960;74.66956;      0.64994; 82.75206;1.00000
769.87772;74.71758;      0.64836; 82.74155;1.00000
770.35308;74.76560;      0.64821; 82.73130;1.00000
770.82783;74.81362;      0.64805; 82.71911;1.00000
771.29846;74.86164;      0.64719; 82.71194;1.00000
771.76575;74.90965;      0.64714; 82.70900;1.00000
772.24245;74.95767;      0.64630; 82.70134;1.00000
772.71394;75.00569;      0.64585; 82.69738;1.00000
773.18754;75.05371;      0.64523; 82.69457;1.00000
773.65724;75.10173;      0.64428; 82.68872;1.00000
774.13261;75.14975;      0.64492; 82.68402;1.00000
774.60817;75.19777;      0.64261; 82.67759;1.00000
775.08999;75.24579;      0.64319; 82.66980;1.00000
775.55389;75.29381;      0.64267; 82.66146;1.00000
776.03497;75.34183;      0.64135; 82.65154;1.00000
776.50046;75.38984;      0.64156; 82.64104;1.00000
776.97660;75.43786;      0.64170; 82.62558;1.00000
777.45354;75.48588;      0.64052; 82.61595;1.00000
777.93311;75.53390;      0.64039; 82.61410;1.00000
778.41467;75.58192;      0.64035; 82.60887;1.00000
778.88336;75.62994;      0.63934; 82.60202;1.00000
779.35563;75.67796;      0.63912; 82.59041;1.00000
779.83269;75.72598;      0.63880; 82.58081;1.00000
780.31302;75.77400;      0.63938; 82.57061;1.00000
780.77236;75.82202;      0.63869; 82.56252;1.00000
781.26334;75.87004;      0.63873; 82.55299;1.00000
781.73157;75.91805;      0.63818; 82.54058;1.00000
782.20994;75.96607;      0.63837; 82.53106;1.00000
782.69669;76.01409;      0.63923; 82.52310;1.00000
783.17168;76.06211;      0.63856; 82.51362;1.00000
783.63518;76.11013;      0.63813; 82.50599;1.00000
784.10925;76.15815;      0.63849; 82.50112;1.00000
784.58586;76.20617;      0.63812; 82.49538;1.00000
785.06852;76.25419;      0.63769; 82.49047;1.00000
785.54497;76.30221;      0.63724; 82.48576;1.00000
786.01324;76.35023;      0.63668; 82.47997;1.00000
786.49754;76.39824;      0.63653; 82.47222;1.00000
786.97551;76.44626;      0.63770; 82.45875;1.00000
787.44950;76.49428;      0.63727; 82.44539;1.00000
787.92809;76.54230;      0.63615; 82.44415;1.00000
788.40850;76.59032;      0.63699; 82.43898;1.00000
788.88105;76.63834;      0.63571; 82.43054;1.00000
789.36078;76.68636;      0.63574; 82.41872;1.00000
789.83277;76.73438;      0.63544; 82.40711;1.00000
790.31036;76.78240;      0.63488; 82.39425;1.00000
790.78894;76.83042;      0.63469; 82.38295;1.00000
791.25325;76.87843;      0.63468; 82.37429;1.00000
791.74320;76.92645;      0.63512; 82.36204;1.00000
792.21514;76.97447;      0.63435; 82.35121;1.00000
792.69292;77.02249;      0.63406; 82.34145;1.00000
793.17152;77.07051;      0.63382; 82.33292;1.00000
793.64953;77.11853;      0.63279; 82.32727;1.00000
794.12039;77.16655;      0.63302; 82.32076;1.00000
794.59396;77.21457;      0.63240; 82.31244;1.00000
795.07930;77.26259;      0.63286; 82.30678;1.00000
795.55575;77.31061;      0.63130; 82.29278;1.00000
796.02994;77.35862;      0.63171; 82.27920;1.00000
796.50893;77.40664;      0.63019; 82.27522;1.00000
796.97721;77.45466;      0.63053; 82.27609;1.00000
797.45400;77.50268;      0.63055; 82.27371;1.00000
797.92585;77.55070;      0.63043; 82.26893;1.00000
798.40271;77.59872;      0.62961; 82.26420;1.00000
798.88880;77.64674;      0.62952; 82.25732;1.00000
799.35507;77.69476;      0.62901; 82.25105;1.00000
799.82703;77.74278;      0.62874; 82.24578;1.00000
800.30247;77.79080;      0.62917; 82.23985;1.00000
800.77891;77.83881;      0.62942; 82.23421;1.00000
801.25053;77.88683;      0.62926; 82.22893;1.00000
801.72225;77.93485;      0.62819; 82.22347;1.00000
802.19909;77.98287;      0.62892; 82.21879;1.00000
802.67092;78.03089;      0.62826; 82.20782;1.00000
803.14192;78.07891;      0.62875; 82.20115;1.00000
803.61333;78.12693;      0.62847; 82.19398;1.00000
804.09196;78.17495;      0.62883; 82.18947;1.00000
804.56428;78.22297;      0.62831; 82.18439;1.00000
805.03473;78.27099;      0.62881; 82.17783;1.00000
805.50401;78.31900;      0.62945; 82.17020;1.00000
805.97872;78.36702;      0.62798; 82.16067;1.00000
806.43626;78.41504;      0.62809; 82.15202;1.00000
806.91539;78.46306;      0.62842; 82.14552;1.00000
807.38786;78.51108;      0.62907; 82.13693;1.00000
807.85983;78.55910;      0.62883; 82.13209;1.00000
808.33624;78.60712;      0.62813; 82.11698;1.00000
808.80698;78.65514;      0.62829; 82.10393;1.00000
809.27544;78.70316;      0.62802; 82.10277;1.00000
809.74512;78.75118;      0.62792; 82.09800;1.00000
810.22090;78.79919;      0.62787; 82.09211;1.00000
810.68540;78.84721;      0.62738; 82.08557;1.00000
811.16530;78.89523;      0.62657; 82.07781;1.00000
811.63443;78.94325;      0.62633; 82.07032;1.00000
812.11310;78.99127;      0.62508; 82.06075;1.00000
812.56834;79.03929;      0.62602; 82.05209;1.00000
813.04536;79.08731;      0.62533; 82.04516;1.00000
813.51889;79.13533;      0.62556; 82.04244;1.00000
813.99759;79.18335;      0.62515; 82.03489;1.00000
814.46055;79.23137;      0.62471; 82.02484;1.00000
814.94306;79.27938;      0.62500; 82.01907;1.00000
815.40713;79.32740;      0.62494; 82.01341;1.00000
815.87493;79.37542;      0.62457; 82.00493;1.00000
816.35066;79.42344;      0.62421; 81.99955;1.00000
816.82436;79.47146;      0.62334; 81.99582;1.00000
817.29552;79.51948;      0.62440; 81.99205;1.00000
817.77581;79.56750;      0.62413; 81.98830;1.00000
818.24484;79.61552;      0.62344; 81.98412;1.00000
818.71948;79.66354;      0.62342; 81.97832;1.00000
819.19986;79.71156;      0.62277; 81.97271;1.00000
819.67273;79.75957;      0.62266; 81.96607;1.00000
820.14420;79.80759;      0.62269; 81.95843;1.00000
820.61666;79.85561;      0.62219; 81.95074;1.00000
821.08905;79.90363;      0.62215; 81.94352;1.00000
821.55775;79.95165;      0.62204; 81.93883;1.00000
822.03654;79.99967;      0.62278; 81.93306;1.00000
822.51134;80.04769;      0.62228; 81.92541;1.00000
822.98864;80.09571;      0.62187; 81.91830;1.00000
823.45459;80.14373;      0.62218; 81.91260;1.00000
823.94121;80.19175;      0.62198; 81.90451;1.00000
824.41366;80.23976;      0.62143; 81.89405;1.00000
824.89132;80.28778;      0.62153; 81.88625;1.00000
825.35823;80.33580;      0.62148; 81.88388;1.00000
825.84059;80.38382;      0.62091; 81.88159;1.00000
826.31247;80.43184;      0.62164; 81.87667;1.00000
826.78550;80.47986;      0.62142; 81.87101;1.00000
827.25804;80.52788;      0.62075; 81.86425;1.00000
827.73387;80.57590;      0.62120; 81.85780;1.00000
828.21810;80.62392;      0.62108; 81.85151;1.00000
828.69350;80.67194;      0.62064; 81.84598;1.00000
829.16956;80.71995;      0.62065; 81.84301;1.00000
829.64665;80.76797;      0.62036; 81.83823;1.00000
830.11873;80.81599;      0.62087; 81.83450;1.00000
830.59965;80.86401;      0.61947; 81.82533;1.00000
831.08085;80.91203;      0.62045; 81.82150;1.00000
831.55153;80.96005;      0.62012; 81.82900;1.00000
832.02542;81.00807;      0.62059; 81.82724;1.00000
832.49537;81.05609;      0.62045; 81.82291;1.00000
832.97995;81.10411;      0.62121; 81.82169;1.00000
833.45663;81.15213;      0.62055; 81.81984;1.00000
833.92249;81.20015;      0.62073; 81.81900;1.00000
834.40416;81.24816;      0.62134; 81.81896;1.00000
834.87572;81.29618;      0.62149; 81.81792;1.00000
835.35145;81.34420;      0.62207; 81.81698;1.00000
835.82658;81.39222;      0.62065; 81.81470;1.00000
836.29313;81.44024;      0.62256; 81.80896;1.00000
836.76712;81.48826;      0.62213; 81.80213;1.00000
837.24838;81.53628;      0.62157; 81.79899;1.00000
837.71496;81.58430;      0.62201; 81.79520;1.00000
838.18554;81.63232;      0.62231; 81.78662;1.00000
838.66012;81.68034;      0.62202; 81.77489;1.00000
839.14523;81.72835;      0.62263; 81.76045;1.00000
839.61515;81.77637;      0.62295; 81.75505;1.00000
840.08790;81.82439;      0.62292; 81.75255;1.00000
840.56119;81.87241;      0.62302; 81.74684;1.00000
841.03664;81.92043;      0.62333; 81.73892;1.00000
841.50231;81.96845;      0.62306; 81.73031;1.00000
841.98401;82.01647;      0.62338; 81.71942;1.00000
842.45310;82.06449;      0.62302; 81.71112;1.00000
842.92576;82.11251;      0.62326; 81.70454;1.00000
843.39755;82.16053;      0.62338; 81.69792;1.00000
843.88540;82.20854;      0.62295; 81.69211;1.00000
844.34565;82.25656;      0.62261; 81.69194;1.00000
844.82193;82.30458;      0.62312; 81.68991;1.00000
845.29442;82.35260;      0.62329; 81.68339;1.00000
845.77173;82.40062;      0.62372; 81.67496;1.00000
846.24339;82.44864;      0.62291; 81.66913;1.00000
846.71292;82.49666;      0.62363; 81.66721;1.00000
847.19843;82.54468;      0.62324; 81.66398;1.00000
847.66392;82.59270;      0.62356; 81.65954;1.00000
848.13194;82.64072;      0.62356; 81.65187;1.00000
848.61096;82.68873;      0.62450; 81.64514;1.00000
849.07522;82.73675;      0.62420; 81.63997;1.00000
849.55376;82.78477;      0.62473; 81.63960;1.00000
850.02618;82.83279;      0.62471; 81.63692;1.00000
850.49598;82.88081;      0.62455; 81.63398;1.00000
850.97039;82.92883;      0.62441; 81.63007;1.00000
851.44514;82.97685;      0.62601; 81.62721;1.00000
851.91279;83.02487;      0.62605; 81.62486;1.00000
852.38910;83.07289;      0.62654; 81.62296;1.00000
852.85542;83.12091;      0.62682; 81.61998;1.00000
853.32548;83.16892;      0.62735; 81.61714;1.00000
853.80357;83.21694;      0.62673; 81.61513;1.00000
854.27232;83.26496;      0.62763; 81.61251;1.00000
854.74950;83.31298;      0.62692; 81.60965;1.00000
855.22253;83.36100;      0.62781; 81.60284;1.00000
855.69505;83.40902;      0.62728; 81.59808;1.00000
856.16269;83.45704;      0.62872; 81.59229;1.00000
856.63750;83.50506;      0.62895; 81.58757;1.00000
857.11358;83.55308;      0.62882; 81.57728;1.00000
857.59235;83.60110;      0.62865; 81.56779;1.00000
858.06224;83.64911;      0.62888; 81.56102;1.00000
858.53509;83.69713;      0.62981; 81.55900;1.00000
859.00600;83.74515;      0.62898; 81.55659;1.00000
859.48420;83.79317;      0.62992; 81.55100;1.00000
859.95940;83.84119;      0.62900; 81.54689;1.00000
860.42778;83.88921;      0.62967; 81.54500;1.00000
860.90512;83.93723;      0.62923; 81.54316;1.00000
861.37245;83.98525;      0.63022; 81.54036;1.00000
861.84687;84.03327;      0.62969; 81.53890;1.00000
862.32166;84.08129;      0.63028; 81.53792;1.00000
862.79859;84.12930;      0.63086; 81.53598;1.00000
863.26852;84.17732;      0.63005; 81.53131;1.00000
863.73964;84.22534;      0.63142; 81.52358;1.00000
864.21530;84.27336;      0.63041; 81.51325;1.00000
864.68125;84.32138;      0.63048; 81.50578;1.00000
865.16640;84.36940;      0.63033; 81.50009;1.00000
865.63867;84.41742;      0.63134; 81.49140;1.00000
866.11795;84.46544;      0.63124; 81.48491;1.00000
866.59078;84.51346;      0.63179; 81.47844;1.00000
867.06046;84.56148;      0.63265; 81.46968;1.00000
867.53435;84.60949;      0.63169; 81.46207;1.00000
868.01062;84.65751;      0.63278; 81.45534;1.00000
868.48043;84.70553;      0.63276; 81.44888;1.00000
868.95381;84.75355;      0.63343; 81.44487;1.00000
869.43253;84.80157;      0.63380; 81.44403;1.00000
869.90280;84.84959;      0.63453; 81.44102;1.00000
870.37251;84.89761;      0.63388; 81.43831;1.00000
870.84915;84.94563;      0.63489; 81.43434;1.00000
871.32584;84.99365;      0.63440; 81.43175;1.00000
871.80063;85.04167;      0.63469; 81.42247;1.00000
872.27196;85.08968;      0.63483; 81.41009;1.00000
872.74627;85.13770;      0.63564; 81.40122;1.00000
873.21381;85.18572;      0.63640; 81.39902;1.00000
873.69582;85.23374;      0.63505; 81.39796;1.00000
874.16221;85.28176;      0.63576; 81.39382;1.00000
874.63489;85.32978;      0.63569; 81.38903;1.00000
875.11815;85.37780;      0.63626; 81.38531;1.00000
875.58110;85.42582;      0.63686; 81.38088;1.00000
876.06530;85.47384;      0.63674; 81.38036;1.00000
876.53613;85.52186;      0.63673; 81.38104;1.00000
877.00969;85.56987;      0.63736; 81.37900;1.00000
877.48496;85.61789;      0.63735; 81.37616;1.00000
877.96880;85.66591;      0.63779; 81.37352;1.00000
878.43721;85.71393;      0.63809; 81.36960;1.00000
878.91714;85.76195;      0.63892; 81.36266;1.00000
879.38672;85.80997;      0.63858; 81.35700;1.00000
879.86615;85.85799;      0.63930; 81.35401;1.00000
880.34751;85.90601;      0.63967; 81.35349;1.00000
880.81997;85.95403;      0.63964; 81.35079;1.00000
881.29720;86.00205;      0.63944; 81.35101;1.00000
881.76959;86.05007;      0.64010; 81.35100;1.00000
882.24583;86.09808;      0.64038; 81.34902;1.00000
882.72728;86.14610;      0.64037; 81.34640;1.00000
883.19575;86.19412;      0.64062; 81.34270;1.00000
883.67908;86.24214;      0.64129; 81.33755;1.00000
884.15973;86.29016;      0.64156; 81.33297;1.00000
884.62352;86.33818;      0.64241; 81.32722;1.00000
885.09553;86.38620;      0.64246; 81.32467;1.00000
885.58173;86.43422;      0.64354; 81.32282;1.00000
886.05392;86.48224;      0.64381; 81.31900;1.00000
886.52853;86.53026;      0.64374; 81.31701;1.00000
887.01102;86.57827;      0.64536; 81.31801;1.00000
887.47596;86.62629;      0.64461; 81.31572;1.00000
887.95470;86.67431;      0.64578; 81.31292;1.00000
888.42269;86.72233;      0.64586; 81.31305;1.00000
888.91044;86.77035;      0.64697; 81.31096;1.00000
889.37330;86.81837;      0.64696; 81.30720;1.00000
889.84836;86.86639;      0.64798; 81.30236;1.00000
890.32052;86.91441;      0.64837; 81.29747;1.00000
890.79706;86.96243;      0.64740; 81.29481;1.00000
891.26763;87.01045;      0.64918; 81.29298;1.00000
891.74559;87.05846;      0.64892; 81.29005;1.00000
892.22172;87.10648;      0.64960; 81.28424;1.00000
892.68908;87.15450;      0.65039; 81.27854;1.00000
893.16473;87.20252;      0.64976; 81.27376;1.00000
893.63839;87.25054;      0.65067; 81.26995;1.00000
894.10472;87.29856;      0.65083; 81.26612;1.00000
894.58394;87.34658;      0.65210; 81.26432;1.00000
895.04919;87.39460;      0.65277; 81.26452;1.00000
895.52533;87.44262;      0.65253; 81.26935;1.00000
895.99606;87.49064;      0.65282; 81.27105;1.00000
896.47257;87.53865;      0.65322; 81.27193;1.00000
896.94754;87.58667;      0.65398; 81.27369;1.00000
897.42227;87.63469;      0.65435; 81.27297;1.00000
897.88937;87.68271;      0.65548; 81.26972;1.00000
898.36963;87.73073;      0.65529; 81.26592;1.00000
898.84291;87.77875;      0.65610; 81.26214;1.00000
899.30861;87.82677;      0.65669; 81.25994;1.00000
899.78293;87.87479;      0.65687; 81.25893;1.00000
900.25699;87.92281;      0.65735; 81.26026;1.00000
900.73539;87.97083;      0.65708; 81.26200;1.00000
901.20750;88.01884;      0.65794; 81.26198;1.00000
901.68150;88.06686;      0.65885; 81.26173;1.00000
902.15870;88.11488;      0.65769; 81.26098;1.00000
902.62024;88.16290;      0.65845; 81.25550;1.00000
903.09779;88.21092;      0.65878; 81.24984;1.00000
903.57090;88.25894;      0.65888; 81.24704;1.00000
904.04574;88.30696;      0.65935; 81.24426;1.00000
904.52924;88.35498;      0.66059; 81.24251;1.00000
905.00662;88.40300;      0.66076; 81.24220;1.00000
905.47392;88.45102;      0.66150; 81.24400;1.00000
905.95866;88.49903;      0.66173; 81.24207;1.00000
906.42897;88.54705;      0.66163; 81.24094;1.00000
906.89801;88.59507;      0.66252; 81.24014;1.00000
907.37228;88.64309;      0.66273; 81.23884;1.00000
907.84402;88.69111;      0.66409; 81.23595;1.00000
908.32486;88.73913;      0.66384; 81.23016;1.00000
908.80626;88.78715;      0.66585; 81.22353;1.00000
909.27312;88.83517;      0.66604; 81.21550;1.00000
909.75049;88.88319;      0.66711; 81.20858;1.00000
910.21525;88.93121;      0.66691; 81.20280;1.00000
910.68563;88.97922;      0.66783; 81.19512;1.00000
911.16327;89.02724;      0.66862; 81.18818;1.00000
911.63453;89.07526;      0.66910; 81.18257;1.00000
912.10431;89.12328;      0.66949; 81.17639;1.00000
912.57974;89.17130;      0.67107; 81.17185;1.00000
913.05212;89.21932;      0.67099; 81.16803;1.00000
913.52107;89.26734;      0.67121; 81.16602;1.00000
914.00131;89.31536;      0.67166; 81.16568;1.00000
914.47073;89.36338;      0.67362; 81.16267;1.00000
914.95460;89.41140;      0.67315; 81.15786;1.00000
915.41923;89.45941;      0.67381; 81.15502;1.00000
915.89751;89.50743;      0.67399; 81.15128;1.00000
916.37000;89.55545;      0.67502; 81.14648;1.00000
916.83720;89.60347;      0.67472; 81.14464;1.00000
917.31387;89.65149;      0.67540; 81.14407;1.00000
917.77505;89.69951;      0.67607; 81.14210;1.00000
918.25458;89.74753;      0.67695; 81.12882;1.00000
918.73175;89.79555;      0.67723; 81.11780;1.00000
919.20875;89.84357;      0.67763; 81.11381;1.00000
919.68350;89.89159;      0.67868; 81.11511;1.00000
920.15596;89.93960;      0.67902; 81.11402;1.00000
920.62552;89.98762;      0.67994; 81.11104;1.00000
921.10617;90.03564;      0.68024; 81.10752;1.00000
921.57819;90.08366;      0.68173; 81.10365;1.00000
922.05223;90.13168;      0.68140; 81.10094;1.00000
922.52120;90.17970;      0.68218; 81.09802;1.00000
922.99996;90.22772;      0.68277; 81.09514;1.00000
923.48144;90.27574;      0.68325; 81.09202;1.00000
923.95455;90.32376;      0.68414; 81.08979;1.00000
924.43431;90.37178;      0.68427; 81.09222;1.00000
924.90787;90.41979;      0.68559; 81.09300;1.00000
925.37682;90.46781;      0.68546; 81.09211;1.00000
925.85040;90.51583;      0.68603; 81.08965;1.00000
926.32561;90.56385;      0.68667; 81.08735;1.00000
926.79898;90.61187;      0.68820; 81.08510;1.00000
927.27391;90.65989;      0.68878; 81.08500;1.00000
927.74650;90.70791;      0.68914; 81.08707;1.00000
928.23296;90.75593;      0.68970; 81.08816;1.00000
928.69798;90.80395;      0.68979; 81.08086;1.00000
929.17648;90.85197;      0.69003; 81.06979;1.00000
929.64988;90.89998;      0.69153; 81.06600;1.00000
930.12339;90.94800;      0.69213; 81.06224;1.00000
930.60053;90.99602;      0.69301; 81.06017;1.00000
931.07562;91.04404;      0.69271; 81.06503;1.00000
931.55461;91.09206;      0.69350; 81.06678;1.00000
932.02782;91.14008;      0.69481; 81.05698;1.00000
932.49435;91.18810;      0.69527; 81.05402;1.00000
932.97389;91.23612;      0.69572; 81.05400;1.00000
933.44877;91.28414;      0.69610; 81.05400;1.00000
933.91783;91.33216;      0.69775; 81.05382;1.00000
934.39487;91.38018;      0.69877; 81.05199;1.00000
934.86753;91.42819;      0.69873; 81.05090;1.00000
935.33490;91.47621;      0.70066; 81.04845;1.00000
935.81262;91.52423;      0.70164; 81.04769;1.00000
936.29239;91.57225;      0.70159; 81.05097;1.00000
936.75740;91.62027;      0.70192; 81.05101;1.00000
937.23290;91.66829;      0.70214; 81.04902;1.00000
937.70820;91.71631;      0.70314; 81.04440;1.00000
938.18470;91.76433;      0.70433; 81.04102;1.00000
938.65388;91.81235;      0.70510; 81.03772;1.00000
939.12764;91.86037;      0.70511; 81.03496;1.00000
939.60207;91.90838;      0.70587; 81.03210;1.00000
940.07675;91.95640;      0.70673; 81.02934;1.00000
940.55672;92.00442;      0.70657; 81.02558;1.00000
941.03174;92.05244;      0.70710; 81.01974;1.00000
941.50660;92.10046;      0.70817; 81.01292;1.00000
941.98195;92.14848;      0.70840; 81.00621;1.00000
942.46134;92.19650;      0.70932; 81.00330;1.00000
942.93749;92.24452;      0.71019; 81.00299;1.00000
943.41325;92.29254;      0.71125; 81.00317;1.00000
943.89083;92.34056;      0.71087; 81.00197;1.00000
944.36596;92.38857;      0.71141; 80.99922;1.00000
944.84150;92.43659;      0.71238; 80.99631;1.00000
945.32008;92.48461;      0.71350; 80.99299;1.00000
945.78738;92.53263;      0.71419; 80.99008;1.00000
946.26272;92.58065;      0.71408; 80.98698;1.00000
946.73538;92.62867;      0.71545; 80.98415;1.00000
947.21107;92.67669;      0.71632; 80.98034;1.00000
947.69480;92.72471;      0.71755; 80.97504;1.00000
948.16699;92.77273;      0.71734; 80.96692;1.00000
948.63370;92.82075;      0.71813; 80.96191;1.00000
949.11332;92.86876;      0.71944; 80.95819;1.00000
949.58801;92.91678;      0.71984; 80.95413;1.00000
950.05869;92.96480;      0.72057; 80.95251;1.00000
950.52974;93.01282;      0.72124; 80.95302;1.00000
951.00762;93.06084;      0.72280; 80.95400;1.00000
951.48460;93.10886;      0.72295; 80.95502;1.00000
951.96020;93.15688;      0.72392; 80.95418;1.00000
952.42472;93.20490;      0.72466; 80.95416;1.00000
952.90611;93.25292;      0.72542; 80.95278;1.00000
953.37132;93.30094;      0.72616; 80.95184;1.00000
953.84087;93.34895;      0.72666; 80.94020;1.00000
954.31733;93.39697;      0.72743; 80.93052;1.00000
954.79796;93.44499;      0.72842; 80.92256;1.00000
955.26873;93.49301;      0.72899; 80.92429;1.00000
955.73367;93.54103;      0.72945; 80.92600;1.00000
956.21459;93.58905;      0.72989; 80.92605;1.00000
956.68651;93.63707;      0.73109; 80.92500;1.00000
957.16376;93.68509;      0.73179; 80.92550;1.00000
957.63260;93.73311;      0.73188; 80.92587;1.00000
958.10527;93.78113;      0.73363; 80.92496;1.00000
958.57705;93.82914;      0.73511; 80.92203;1.00000
959.05078;93.87716;      0.73525; 80.92111;1.00000
959.52529;93.92518;      0.73659; 80.92110;1.00000
959.99139;93.97320;      0.73705; 80.92101;1.00000
960.46587;94.02122;      0.73764; 80.92320;1.00000
960.94009;94.06924;      0.73834; 80.92400;1.00000
961.41198;94.11726;      0.73918; 80.92400;1.00000
961.87455;94.16528;      0.74019; 80.92499;1.00000
962.35202;94.21330;      0.74076; 80.92810;1.00000
962.83479;94.26132;      0.74033; 80.92791;1.00000
963.30462;94.30933;      0.74156; 80.92504;1.00000
963.77344;94.35735;      0.74264; 80.92221;1.00000
964.24302;94.40537;      0.74371; 80.91932;1.00000
964.71417;94.45339;      0.74471; 80.91696;1.00000
965.19078;94.50141;      0.74549; 80.91398;1.00000
965.65754;94.54943;      0.74541; 80.91202;1.00000
966.13393;94.59745;      0.74610; 80.91014;1.00000
966.60698;94.64547;      0.74806; 80.90860;1.00000
967.08140;94.69349;      0.74792; 80.90734;1.00000
967.55267;94.74151;      0.74788; 80.90393;1.00000
968.02634;94.78952;      0.74927; 80.90104;1.00000
968.49604;94.83754;      0.74926; 80.89508;1.00000
968.97342;94.88556;      0.75017; 80.89198;1.00000
969.44816;94.93358;      0.75072; 80.88367;1.00000
969.91927;94.98160;      0.75064; 80.87593;1.00000
970.40812;95.02962;      0.75204; 80.87103;1.00000
970.88137;95.07764;      0.75310; 80.87170;1.00000
971.34531;95.12566;      0.75416; 80.87459;1.00000
971.82180;95.17368;      0.75470; 80.87514;1.00000
972.29479;95.22170;      0.75465; 80.87298;1.00000
972.76121;95.26971;      0.75566; 80.87102;1.00000
973.23308;95.31773;      0.75602; 80.86936;1.00000
973.71115;95.36575;      0.75584; 80.86568;1.00000
974.18338;95.41377;      0.75785; 80.86101;1.00000
974.65580;95.46179;      0.75891; 80.85797;1.00000
975.12225;95.50981;      0.75997; 80.85404;1.00000
975.60251;95.55783;      0.75927; 80.84812;1.00000
976.07411;95.60585;      0.76020; 80.84463;1.00000
976.55369;95.65387;      0.76041; 80.83925;1.00000
977.03115;95.70189;      0.76174; 80.83494;1.00000
977.49606;95.74990;      0.76225; 80.83201;1.00000
977.97281;95.79792;      0.76199; 80.82721;1.00000
978.44193;95.84594;      0.76288; 80.82230;1.00000
978.91706;95.89396;      0.76367; 80.81900;1.00000
979.39179;95.94198;      0.76460; 80.81676;1.00000
979.87097;95.99000;      0.76508; 80.81500;1.00000

